Transmission Line And Free Space Method 15.1.16021801
Agilent Technologies,N5230C,MY49000690,A.09.42.22

Ch 1
Ports:, 1 & 2
Measurement Model:, Reflection/Transmission Mu and Epsilon
Sample Holder Type:, Waveguide
Cutoff Frequency:, 6.560010 GHz
Sample Holder Length:, 9.700000 mm
Distance to Sample:, 8.200000 mm
Sample Thickness:, 1.500000 mm
IFBW:, 300.000000 Hz
Power:, 0.000000 dBm
Date:,"Wednesday, February 06, 2019 15:21:01"
frequency(GHz),e',e'',u',u''
         8.2000, -83.9049,  47.2665,   1.7396,  -0.4391
         8.2026, -84.2192,  47.5411,   1.7254,  -0.4551
         8.2052, -84.0074,  47.6172,   1.7322,  -0.4428
         8.2079, -83.9650,  47.7622,   1.7245,  -0.4386
         8.2105, -84.1007,  47.5733,   1.7296,  -0.4403
         8.2131, -83.6107,  48.0308,   1.7299,  -0.4148
         8.2157, -83.8463,  47.8139,   1.7210,  -0.4279
         8.2184, -83.2982,  47.1979,   1.7491,  -0.4305
         8.2210, -83.7285,  47.2567,   1.7329,  -0.4451
         8.2236, -83.3008,  47.7267,   1.7430,  -0.4331
         8.2262, -83.7479,  47.5570,   1.7233,  -0.4412
         8.2289, -83.1349,  45.6576,   1.7719,  -0.4770
         8.2315, -84.3871,  48.2683,   1.6984,  -0.4152
         8.2341, -82.6088,  47.9221,   1.7384,  -0.4027
         8.2367, -83.3701,  46.1888,   1.7545,  -0.4677
         8.2394, -84.4818,  47.1088,   1.7028,  -0.4569
         8.2420, -82.4282,  47.2150,   1.7573,  -0.4177
         8.2446, -80.8533,  48.8238,   1.7649,  -0.3603
         8.2472, -82.8170,  47.0776,   1.7383,  -0.4336
         8.2499, -83.1220,  46.1116,   1.7619,  -0.4657
         8.2525, -83.3539,  47.7396,   1.7163,  -0.4113
         8.2551, -83.5149,  47.0245,   1.7258,  -0.4546
         8.2577, -83.6650,  46.6167,   1.7300,  -0.4542
         8.2604, -83.5388,  46.3686,   1.7295,  -0.4676
         8.2630, -82.5549,  47.2963,   1.7495,  -0.4213
         8.2656, -83.4261,  46.4818,   1.7327,  -0.4556
         8.2682, -82.3918,  46.8499,   1.7466,  -0.4271
         8.2709, -82.3188,  46.9070,   1.7448,  -0.4210
         8.2735, -83.1788,  46.5358,   1.7356,  -0.4482
         8.2761, -82.8997,  47.2785,   1.7248,  -0.4283
         8.2787, -82.7144,  47.1990,   1.7312,  -0.4232
         8.2814, -82.5911,  46.3378,   1.7356,  -0.4415
         8.2840, -82.8599,  46.2642,   1.7431,  -0.4477
         8.2866, -82.5759,  46.3556,   1.7321,  -0.4464
         8.2892, -82.5056,  46.8378,   1.7289,  -0.4293
         8.2919, -82.7916,  46.5435,   1.7262,  -0.4326
         8.2945, -82.9866,  46.5624,   1.7250,  -0.4469
         8.2971, -81.7764,  45.6242,   1.7726,  -0.4590
         8.2997, -82.8476,  46.5226,   1.7177,  -0.4483
         8.3024, -82.8127,  45.8826,   1.7416,  -0.4715
         8.3050, -82.0036,  46.0473,   1.7504,  -0.4437
         8.3076, -83.0045,  46.3754,   1.7158,  -0.4418
         8.3102, -81.5366,  46.3956,   1.7608,  -0.4257
         8.3129, -82.4598,  45.3520,   1.7465,  -0.4647
         8.3155, -81.9904,  46.2640,   1.7298,  -0.4366
         8.3181, -82.0739,  47.3834,   1.7162,  -0.4110
         8.3207, -82.8582,  46.5536,   1.7105,  -0.4450
         8.3234, -81.5448,  46.2526,   1.7419,  -0.4275
         8.3260, -81.1569,  46.9540,   1.7497,  -0.4044
         8.3286, -82.5165,  46.0949,   1.7256,  -0.4511
         8.3312, -83.0700,  45.8147,   1.7069,  -0.4598
         8.3339, -81.5461,  46.4802,   1.7307,  -0.4226
         8.3365, -81.5473,  45.9319,   1.7486,  -0.4303
         8.3391, -81.4964,  46.5377,   1.7290,  -0.4184
         8.3417, -81.2500,  45.9404,   1.7576,  -0.4196
         8.3444, -82.7031,  45.8374,   1.7116,  -0.4633
         8.3470, -82.0974,  45.2394,   1.7369,  -0.4575
         8.3496, -81.7914,  45.1192,   1.7480,  -0.4462
         8.3522, -82.4315,  45.6996,   1.7157,  -0.4431
         8.3549, -81.6367,  45.5084,   1.7354,  -0.4431
         8.3575, -81.7806,  45.0312,   1.7378,  -0.4523
         8.3601, -81.6049,  45.2894,   1.7410,  -0.4545
         8.3627, -81.7584,  45.8532,   1.7259,  -0.4405
         8.3654, -81.9487,  45.8099,   1.7250,  -0.4407
         8.3680, -81.0378,  45.9092,   1.7458,  -0.4195
         8.3706, -80.8811,  44.9020,   1.7515,  -0.4450
         8.3732, -81.9506,  46.2917,   1.7143,  -0.4243
         8.3759, -81.3259,  46.0058,   1.7255,  -0.4226
         8.3785, -82.2085,  45.6176,   1.7046,  -0.4518
         8.3811, -80.6999,  45.7710,   1.7418,  -0.4231
         8.3837, -80.9950,  43.7050,   1.7581,  -0.4869
         8.3864, -80.9871,  45.7583,   1.7336,  -0.4271
         8.3890, -81.8009,  44.0858,   1.7334,  -0.4784
         8.3916, -81.2625,  44.9348,   1.7420,  -0.4454
         8.3942, -79.8246,  44.7503,   1.7861,  -0.4358
         8.3969, -81.1467,  46.2288,   1.7127,  -0.4126
         8.3995, -80.6230,  43.8344,   1.7657,  -0.4775
         8.4021, -81.3644,  45.6557,   1.7169,  -0.4201
         8.4047, -81.9715,  45.2006,   1.7063,  -0.4625
         8.4074, -80.7088,  45.3417,   1.7354,  -0.4247
         8.4100, -80.8018,  45.3599,   1.7274,  -0.4303
         8.4126, -80.5603,  44.5774,   1.7484,  -0.4423
         8.4152, -80.3607,  44.4408,   1.7532,  -0.4520
         8.4179, -80.3388,  44.7552,   1.7541,  -0.4405
         8.4205, -80.3796,  45.2287,   1.7487,  -0.4268
         8.4231, -80.2946,  44.4320,   1.7547,  -0.4482
         8.4257, -80.0294,  44.3054,   1.7579,  -0.4510
         8.4284, -79.9392,  44.3260,   1.7653,  -0.4328
         8.4310, -80.4145,  44.1935,   1.7425,  -0.4473
         8.4336, -79.9519,  44.6674,   1.7504,  -0.4305
         8.4362, -79.9277,  44.3011,   1.7563,  -0.4397
         8.4389, -79.4721,  44.5373,   1.7660,  -0.4279
         8.4415, -79.6922,  44.5387,   1.7628,  -0.4290
         8.4441, -79.8953,  43.9019,   1.7611,  -0.4555
         8.4467, -80.4494,  43.4988,   1.7417,  -0.4686
         8.4494, -80.1020,  44.2112,   1.7510,  -0.4367
         8.4520, -79.6750,  43.7285,   1.7659,  -0.4476
         8.4546, -80.0335,  44.8360,   1.7376,  -0.4231
         8.4572, -79.0989,  44.1755,   1.7730,  -0.4405
         8.4599, -79.9785,  44.2389,   1.7521,  -0.4461
         8.4625, -80.3087,  44.2193,   1.7424,  -0.4470
         8.4651, -79.8192,  44.5875,   1.7392,  -0.4313
         8.4677, -79.2537,  44.5730,   1.7624,  -0.4205
         8.4704, -79.0762,  44.1447,   1.7657,  -0.4267
         8.4730, -79.4164,  44.0764,   1.7513,  -0.4322
         8.4756, -79.8666,  45.2124,   1.7270,  -0.4077
         8.4782, -79.7978,  43.3610,   1.7461,  -0.4623
         8.4809, -78.8706,  45.1437,   1.7573,  -0.4080
         8.4835, -80.1334,  44.1543,   1.7291,  -0.4357
         8.4861, -79.5985,  44.1057,   1.7433,  -0.4355
         8.4887, -79.6649,  44.2281,   1.7337,  -0.4301
         8.4914, -79.1763,  43.6241,   1.7606,  -0.4496
         8.4940, -79.7204,  43.9649,   1.7336,  -0.4468
         8.4966, -79.4591,  44.6285,   1.7299,  -0.4218
         8.4992, -79.0134,  43.5165,   1.7585,  -0.4509
         8.5019, -80.5336,  44.2510,   1.7102,  -0.4447
         8.5045, -79.7665,  43.7698,   1.7343,  -0.4399
         8.5071, -79.6222,  43.6868,   1.7380,  -0.4549
         8.5097, -78.8392,  44.1956,   1.7408,  -0.4192
         8.5124, -79.3160,  43.4020,   1.7508,  -0.4472
         8.5150, -78.7166,  43.9553,   1.7555,  -0.4230
         8.5176, -78.5038,  43.5604,   1.7647,  -0.4279
         8.5202, -79.3373,  44.8307,   1.7165,  -0.4090
         8.5229, -78.5609,  43.3018,   1.7617,  -0.4447
         8.5255, -79.4340,  43.7121,   1.7253,  -0.4290
         8.5281, -79.2537,  43.4392,   1.7389,  -0.4369
         8.5307, -80.0066,  43.8633,   1.7107,  -0.4449
         8.5334, -78.8936,  43.9438,   1.7305,  -0.4208
         8.5360, -78.4549,  43.5598,   1.7521,  -0.4271
         8.5386, -78.2484,  43.1343,   1.7808,  -0.4323
         8.5412, -78.5345,  43.4754,   1.7554,  -0.4235
         8.5439, -78.3337,  44.5160,   1.7418,  -0.3947
         8.5465, -79.0393,  43.3277,   1.7267,  -0.4385
         8.5491, -79.6940,  43.0125,   1.7293,  -0.4627
         8.5517, -77.6622,  44.0779,   1.7598,  -0.3941
         8.5544, -78.5213,  43.7914,   1.7433,  -0.4283
         8.5570, -79.1557,  44.0833,   1.7168,  -0.4160
         8.5596, -77.8511,  42.3524,   1.7833,  -0.4468
         8.5622, -77.8556,  43.7677,   1.7601,  -0.4141
         8.5649, -78.3302,  43.4583,   1.7433,  -0.4237
         8.5675, -77.4529,  43.4159,   1.7686,  -0.4189
         8.5701, -77.6015,  42.7297,   1.7730,  -0.4361
         8.5727, -78.4987,  43.4466,   1.7248,  -0.4340
         8.5754, -78.3483,  43.3735,   1.7382,  -0.4290
         8.5780, -78.4431,  42.8087,   1.7467,  -0.4511
         8.5806, -78.1143,  43.2275,   1.7511,  -0.4233
         8.5832, -77.8620,  42.8118,   1.7589,  -0.4338
         8.5859, -78.0091,  42.6969,   1.7490,  -0.4364
         8.5885, -78.6180,  42.8729,   1.7312,  -0.4485
         8.5911, -77.6674,  42.4823,   1.7683,  -0.4456
         8.5938, -78.2545,  42.7305,   1.7407,  -0.4434
         8.5964, -77.5593,  42.9961,   1.7632,  -0.4277
         8.5990, -77.4887,  42.8134,   1.7655,  -0.4283
         8.6016, -77.5019,  42.6127,   1.7647,  -0.4269
         8.6043, -77.6255,  42.3755,   1.7606,  -0.4465
         8.6069, -76.4909,  42.8961,   1.7852,  -0.3989
         8.6095, -77.7244,  41.8844,   1.7523,  -0.4543
         8.6121, -77.6155,  41.8764,   1.7666,  -0.4534
         8.6148, -76.4633,  42.8267,   1.7840,  -0.4125
         8.6174, -78.5928,  42.1283,   1.7265,  -0.4659
         8.6200, -77.3524,  42.8608,   1.7527,  -0.4216
         8.6226, -78.0641,  42.4676,   1.7386,  -0.4419
         8.6252, -77.2416,  42.4258,   1.7515,  -0.4327
         8.6279, -77.6248,  42.7602,   1.7327,  -0.4257
         8.6305, -77.7836,  42.6130,   1.7409,  -0.4452
         8.6331, -77.4516,  42.2418,   1.7562,  -0.4351
         8.6357, -77.6537,  42.5033,   1.7410,  -0.4369
         8.6384, -76.8617,  42.2816,   1.7662,  -0.4343
         8.6410, -77.6527,  41.9909,   1.7442,  -0.4429
         8.6436, -76.7169,  42.0638,   1.7717,  -0.4321
         8.6463, -77.3517,  42.2584,   1.7352,  -0.4345
         8.6489, -77.2834,  41.8932,   1.7517,  -0.4442
         8.6515, -77.0510,  42.2268,   1.7582,  -0.4410
         8.6541, -77.0091,  41.6855,   1.7624,  -0.4585
         8.6568, -77.0680,  41.9285,   1.7554,  -0.4396
         8.6594, -78.0746,  41.7884,   1.7250,  -0.4556
         8.6620, -76.8606,  41.5546,   1.7638,  -0.4370
         8.6646, -76.5423,  41.7992,   1.7719,  -0.4375
         8.6672, -77.1164,  41.7935,   1.7444,  -0.4360
         8.6699, -76.1897,  41.6640,   1.7709,  -0.4286
         8.6725, -77.1588,  41.4749,   1.7469,  -0.4594
         8.6751, -76.3102,  41.3576,   1.7834,  -0.4526
         8.6777, -75.7724,  41.5600,   1.7877,  -0.4249
         8.6804, -77.0497,  41.7206,   1.7461,  -0.4284
         8.6830, -76.5936,  41.4845,   1.7602,  -0.4420
         8.6856, -77.0409,  42.0405,   1.7432,  -0.4390
         8.6883, -76.4731,  41.6963,   1.7541,  -0.4280
         8.6909, -75.4277,  41.6255,   1.7958,  -0.4180
         8.6935, -76.8547,  40.9664,   1.7547,  -0.4597
         8.6961, -76.8274,  41.1399,   1.7551,  -0.4541
         8.6988, -75.9050,  40.5411,   1.7946,  -0.4543
         8.7014, -76.5081,  40.9763,   1.7710,  -0.4522
         8.7040, -76.1635,  40.8287,   1.7696,  -0.4501
         8.7066, -75.5051,  41.1040,   1.7869,  -0.4387
         8.7093, -77.0387,  41.3861,   1.7334,  -0.4559
         8.7119, -75.8648,  41.1668,   1.7781,  -0.4360
         8.7145, -75.6541,  41.7878,   1.7674,  -0.4162
         8.7171, -76.3067,  41.5894,   1.7473,  -0.4261
         8.7197, -76.0887,  41.0183,   1.7616,  -0.4371
         8.7224, -75.1566,  40.9311,   1.7861,  -0.4279
         8.7250, -76.0334,  41.3709,   1.7608,  -0.4336
         8.7276, -76.0369,  41.1214,   1.7551,  -0.4384
         8.7302, -75.6831,  40.9187,   1.7689,  -0.4401
         8.7329, -75.8248,  40.9702,   1.7631,  -0.4383
         8.7355, -75.7254,  41.2952,   1.7666,  -0.4275
         8.7381, -76.1951,  41.2972,   1.7467,  -0.4333
         8.7408, -75.9543,  41.3225,   1.7481,  -0.4293
         8.7434, -75.9545,  41.0762,   1.7447,  -0.4407
         8.7460, -75.3491,  40.6553,   1.7719,  -0.4440
         8.7486, -75.8328,  41.5868,   1.7434,  -0.4232
         8.7513, -76.1937,  40.9426,   1.7502,  -0.4451
         8.7539, -75.7867,  40.7741,   1.7536,  -0.4411
         8.7565, -75.2713,  40.9972,   1.7689,  -0.4197
         8.7591, -75.8742,  40.5907,   1.7522,  -0.4442
         8.7617, -75.8133,  40.1106,   1.7634,  -0.4574
         8.7644, -75.5882,  39.8090,   1.7690,  -0.4628
         8.7670, -75.3485,  40.7629,   1.7586,  -0.4342
         8.7696, -74.6269,  40.5837,   1.7910,  -0.4270
         8.7722, -75.1664,  40.9573,   1.7705,  -0.4229
         8.7749, -74.9127,  40.7322,   1.7844,  -0.4300
         8.7775, -75.5409,  39.4471,   1.7650,  -0.4705
         8.7801, -74.5398,  40.6048,   1.7829,  -0.4266
         8.7828, -75.5402,  40.3676,   1.7515,  -0.4412
         8.7854, -74.4271,  40.3699,   1.7891,  -0.4274
         8.7880, -73.7300,  40.5991,   1.8025,  -0.4200
         8.7906, -74.6181,  40.2327,   1.7793,  -0.4401
         8.7933, -74.9775,  40.5057,   1.7717,  -0.4275
         8.7959, -74.9450,  39.8258,   1.7797,  -0.4511
         8.7985, -74.3506,  39.8265,   1.7854,  -0.4414
         8.8011, -75.4638,  40.2642,   1.7471,  -0.4502
         8.8038, -73.9651,  39.7514,   1.8015,  -0.4368
         8.8064, -74.1956,  40.0036,   1.7857,  -0.4267
         8.8090, -75.0234,  39.5421,   1.7764,  -0.4655
         8.8116, -74.9969,  40.1575,   1.7667,  -0.4354
         8.8142, -75.5205,  39.5297,   1.7483,  -0.4667
         8.8169, -74.0745,  39.5761,   1.7919,  -0.4433
         8.8195, -74.4369,  40.2079,   1.7794,  -0.4197
         8.8221, -74.0729,  39.9261,   1.7882,  -0.4284
         8.8247, -74.5597,  40.2155,   1.7561,  -0.4450
         8.8274, -74.0548,  40.2602,   1.7771,  -0.4280
         8.8300, -74.8561,  39.5887,   1.7608,  -0.4464
         8.8326, -74.0432,  39.9975,   1.7819,  -0.4251
         8.8353, -74.3892,  39.9724,   1.7761,  -0.4269
         8.8379, -73.8284,  39.9181,   1.7922,  -0.4321
         8.8405, -74.0710,  39.6041,   1.7697,  -0.4373
         8.8431, -74.1957,  39.7458,   1.7639,  -0.4451
         8.8458, -74.3188,  39.6332,   1.7679,  -0.4472
         8.8484, -74.6139,  39.3901,   1.7654,  -0.4564
         8.8510, -74.4375,  39.3688,   1.7787,  -0.4573
         8.8536, -74.0742,  39.2586,   1.7796,  -0.4522
         8.8562, -74.2873,  39.7617,   1.7648,  -0.4208
         8.8589, -73.4523,  39.2145,   1.7957,  -0.4384
         8.8615, -73.1587,  39.3300,   1.8000,  -0.4310
         8.8641, -73.2301,  39.3123,   1.7966,  -0.4221
         8.8667, -74.3004,  40.0562,   1.7622,  -0.4272
         8.8694, -73.6047,  39.1573,   1.7846,  -0.4418
         8.8720, -74.5843,  39.5214,   1.7534,  -0.4458
         8.8746, -74.7302,  40.1087,   1.7337,  -0.4263
         8.8773, -73.3717,  39.2504,   1.7919,  -0.4343
         8.8799, -73.1006,  39.4091,   1.7907,  -0.4239
         8.8825, -74.3047,  39.2438,   1.7527,  -0.4578
         8.8851, -73.5470,  39.4616,   1.7713,  -0.4297
         8.8878, -73.7665,  39.8570,   1.7578,  -0.4196
         8.8904, -73.1780,  38.9463,   1.7937,  -0.4356
         8.8930, -73.6448,  39.4781,   1.7621,  -0.4299
         8.8956, -73.2418,  39.5836,   1.7760,  -0.4078
         8.8983, -73.0402,  39.4642,   1.7880,  -0.4229
         8.9009, -73.2344,  38.9266,   1.7816,  -0.4363
         8.9035, -73.5632,  39.5943,   1.7551,  -0.4185
         8.9061, -73.3319,  38.4278,   1.7881,  -0.4499
         8.9087, -73.0667,  39.8786,   1.7686,  -0.4099
         8.9114, -73.3902,  39.2168,   1.7751,  -0.4351
         8.9140, -73.2747,  39.0837,   1.7692,  -0.4310
         8.9166, -73.0875,  39.3042,   1.7760,  -0.4156
         8.9192, -73.3580,  39.9676,   1.7557,  -0.4113
         8.9219, -73.4796,  38.8676,   1.7642,  -0.4365
         8.9245, -73.2041,  39.6277,   1.7609,  -0.4130
         8.9271, -72.8221,  38.6818,   1.7824,  -0.4369
         8.9298, -73.4048,  39.1345,   1.7601,  -0.4369
         8.9324, -73.5954,  39.3409,   1.7565,  -0.4240
         8.9350, -72.5909,  38.5818,   1.7884,  -0.4429
         8.9376, -72.6463,  38.9501,   1.7744,  -0.4228
         8.9403, -72.9095,  38.8222,   1.7778,  -0.4413
         8.9429, -72.8883,  38.5680,   1.7857,  -0.4441
         8.9455, -71.7696,  39.4177,   1.8012,  -0.3971
         8.9481, -72.3676,  37.3588,   1.8177,  -0.4644
         8.9507, -71.7901,  39.6157,   1.8011,  -0.3882
         8.9534, -72.0681,  38.0481,   1.8044,  -0.4329
         8.9560, -71.7873,  38.5033,   1.8171,  -0.4215
         8.9586, -73.4636,  39.1430,   1.7456,  -0.4252
         8.9612, -73.1073,  37.9471,   1.7760,  -0.4645
         8.9639, -72.5070,  37.6442,   1.7926,  -0.4636
         8.9665, -72.7948,  38.4025,   1.7749,  -0.4374
         8.9691, -72.3442,  38.3497,   1.7893,  -0.4373
         8.9718, -72.4064,  38.4521,   1.7836,  -0.4243
         8.9744, -72.6511,  38.6063,   1.7675,  -0.4326
         8.9770, -72.0228,  38.4948,   1.7913,  -0.4258
         8.9796, -71.9687,  37.8407,   1.8047,  -0.4352
         8.9823, -72.1908,  37.8419,   1.7997,  -0.4392
         8.9849, -72.0343,  38.0664,   1.7946,  -0.4411
         8.9875, -72.4153,  38.0599,   1.7890,  -0.4281
         8.9901, -72.1545,  38.2083,   1.7767,  -0.4323
         8.9927, -72.0722,  37.5842,   1.7949,  -0.4546
         8.9954, -71.9890,  37.9281,   1.7877,  -0.4437
         8.9980, -71.8803,  38.0601,   1.7851,  -0.4384
         9.0006, -72.0572,  37.7046,   1.7836,  -0.4465
         9.0032, -72.3770,  37.5599,   1.7934,  -0.4653
         9.0059, -71.5170,  38.4841,   1.7961,  -0.4144
         9.0085, -71.6352,  37.8543,   1.7986,  -0.4377
         9.0111, -72.0352,  38.3609,   1.7654,  -0.4235
         9.0137, -72.3399,  38.1542,   1.7607,  -0.4304
         9.0164, -71.9480,  37.0507,   1.7890,  -0.4655
         9.0190, -72.3997,  36.9979,   1.7844,  -0.4773
         9.0216, -71.3946,  37.7502,   1.7980,  -0.4364
         9.0243, -71.6945,  36.7124,   1.8021,  -0.4715
         9.0269, -71.1091,  37.8950,   1.7936,  -0.4190
         9.0295, -72.1166,  38.1281,   1.7640,  -0.4253
         9.0321, -71.8500,  37.9351,   1.7684,  -0.4248
         9.0348, -71.5235,  37.5694,   1.7852,  -0.4386
         9.0374, -70.7616,  38.2201,   1.8043,  -0.4017
         9.0400, -71.2188,  38.3282,   1.7912,  -0.4104
         9.0426, -71.9072,  37.7625,   1.7737,  -0.4313
         9.0452, -71.8315,  38.8680,   1.7462,  -0.3982
         9.0479, -71.6690,  37.6922,   1.7847,  -0.4342
         9.0505, -71.4199,  37.9192,   1.7730,  -0.4188
         9.0531, -71.6792,  37.5594,   1.7694,  -0.4404
         9.0557, -71.1953,  37.4684,   1.7933,  -0.4307
         9.0584, -71.3271,  37.4604,   1.7895,  -0.4359
         9.0610, -71.5626,  37.8565,   1.7771,  -0.4298
         9.0636, -70.9127,  37.5918,   1.7889,  -0.4287
         9.0663, -71.2845,  37.4603,   1.7808,  -0.4270
         9.0689, -70.9327,  37.6577,   1.7871,  -0.4161
         9.0715, -70.9146,  37.8995,   1.7796,  -0.4150
         9.0741, -70.9991,  37.7023,   1.7783,  -0.4234
         9.0768, -70.9176,  37.5441,   1.7857,  -0.4340
         9.0794, -71.2157,  37.5730,   1.7890,  -0.4335
         9.0820, -70.9013,  37.2939,   1.7867,  -0.4393
         9.0846, -70.5671,  37.9819,   1.7839,  -0.4088
         9.0872, -70.8249,  37.1907,   1.7878,  -0.4291
         9.0899, -71.1474,  36.4440,   1.7860,  -0.4498
         9.0925, -71.8259,  37.4806,   1.7461,  -0.4428
         9.0951, -70.7738,  36.8433,   1.7925,  -0.4383
         9.0977, -70.8562,  36.6244,   1.7904,  -0.4533
         9.1004, -70.9504,  36.9826,   1.7841,  -0.4356
         9.1030, -70.4406,  36.8828,   1.8027,  -0.4210
         9.1056, -70.9529,  36.9678,   1.7715,  -0.4403
         9.1083, -70.5666,  36.3823,   1.7990,  -0.4518
         9.1109, -71.8025,  36.4788,   1.7545,  -0.4641
         9.1135, -70.5447,  36.9980,   1.7877,  -0.4313
         9.1161, -71.5857,  37.4787,   1.7499,  -0.4217
         9.1188, -70.8322,  35.9342,   1.7930,  -0.4684
         9.1214, -69.7228,  37.0855,   1.8090,  -0.4112
         9.1240, -69.9816,  37.2606,   1.7954,  -0.4123
         9.1266, -70.3834,  36.7975,   1.7928,  -0.4311
         9.1293, -70.5705,  36.1635,   1.7941,  -0.4572
         9.1319, -70.7411,  36.3918,   1.7757,  -0.4538
         9.1345, -70.5530,  36.7255,   1.7770,  -0.4449
         9.1371, -70.4038,  37.2643,   1.7656,  -0.4182
         9.1397, -69.8168,  36.4338,   1.8050,  -0.4266
         9.1424, -70.7215,  36.7311,   1.7713,  -0.4438
         9.1450, -70.3114,  36.4670,   1.7872,  -0.4273
         9.1476, -70.2968,  36.4509,   1.7872,  -0.4504
         9.1502, -70.0640,  36.6499,   1.7868,  -0.4253
         9.1529, -70.2483,  36.4799,   1.7801,  -0.4408
         9.1555, -70.1192,  35.9114,   1.8012,  -0.4597
         9.1581, -69.9220,  36.4269,   1.7984,  -0.4333
         9.1608, -69.9767,  36.4528,   1.7808,  -0.4333
         9.1634, -69.8747,  36.3805,   1.7876,  -0.4308
         9.1660, -69.9660,  36.2272,   1.7958,  -0.4411
         9.1686, -69.9436,  36.2961,   1.7849,  -0.4346
         9.1713, -69.5973,  36.8767,   1.7810,  -0.4154
         9.1739, -69.4889,  36.4857,   1.7965,  -0.4282
         9.1765, -70.4089,  35.0749,   1.7946,  -0.4877
         9.1791, -68.8313,  36.8237,   1.8052,  -0.3989
         9.1817, -70.3256,  36.1673,   1.7753,  -0.4483
         9.1844, -70.1720,  36.1514,   1.7728,  -0.4452
         9.1870, -69.8291,  36.3999,   1.7889,  -0.4315
         9.1896, -69.4026,  36.2236,   1.7977,  -0.4324
         9.1922, -69.3532,  36.7413,   1.7863,  -0.4138
         9.1949, -68.8633,  35.8524,   1.8149,  -0.4284
         9.1975, -68.9335,  36.2494,   1.8163,  -0.4130
         9.2001, -69.1411,  37.0546,   1.7850,  -0.3963
         9.2028, -69.6659,  35.5199,   1.7914,  -0.4540
         9.2054, -69.9272,  35.9553,   1.7681,  -0.4431
         9.2080, -69.3691,  36.1174,   1.7859,  -0.4239
         9.2106, -69.2701,  36.6450,   1.7876,  -0.4110
         9.2133, -68.7548,  35.7061,   1.8174,  -0.4301
         9.2159, -68.8905,  35.6236,   1.8123,  -0.4340
         9.2185, -69.2691,  36.7011,   1.7889,  -0.4064
         9.2211, -69.0157,  36.1762,   1.7905,  -0.4155
         9.2238, -69.4418,  35.8948,   1.7846,  -0.4333
         9.2264, -68.4889,  36.0486,   1.8130,  -0.4142
         9.2290, -68.7765,  35.8865,   1.8017,  -0.4203
         9.2316, -68.6860,  35.9962,   1.7919,  -0.4212
         9.2342, -68.5992,  35.7328,   1.8063,  -0.4267
         9.2369, -69.5069,  35.9574,   1.7738,  -0.4336
         9.2395, -68.9756,  35.6417,   1.7978,  -0.4340
         9.2421, -68.3524,  35.7754,   1.8148,  -0.4116
         9.2447, -68.3472,  35.4427,   1.8171,  -0.4267
         9.2474, -68.5866,  35.6081,   1.8023,  -0.4229
         9.2500, -69.2163,  36.0618,   1.7817,  -0.4255
         9.2526, -69.2721,  35.3261,   1.7861,  -0.4537
         9.2553, -68.8318,  35.5638,   1.7979,  -0.4360
         9.2579, -69.4872,  36.1898,   1.7600,  -0.4256
         9.2605, -69.3005,  35.6348,   1.7721,  -0.4363
         9.2631, -69.2306,  35.9666,   1.7766,  -0.4165
         9.2658, -68.4851,  35.3073,   1.7955,  -0.4327
         9.2684, -67.8536,  35.4801,   1.8232,  -0.4128
         9.2710, -68.3893,  35.5046,   1.8040,  -0.4268
         9.2736, -68.5755,  35.0217,   1.7944,  -0.4495
         9.2762, -68.3928,  34.7615,   1.8088,  -0.4492
         9.2789, -68.3866,  34.8518,   1.8118,  -0.4413
         9.2815, -68.6443,  34.9941,   1.7900,  -0.4483
         9.2841, -68.8585,  35.4168,   1.7715,  -0.4347
         9.2867, -68.6031,  35.3701,   1.7851,  -0.4335
         9.2894, -68.4932,  34.8284,   1.7973,  -0.4476
         9.2920, -68.2672,  35.5471,   1.7887,  -0.4212
         9.2946, -67.8964,  35.3967,   1.8067,  -0.4204
         9.2973, -67.9775,  35.3495,   1.8116,  -0.4170
         9.2999, -68.3841,  34.8643,   1.7963,  -0.4403
         9.3025, -68.0248,  35.1110,   1.7981,  -0.4236
         9.3051, -68.0518,  35.3134,   1.7936,  -0.4310
         9.3078, -67.7447,  35.0059,   1.8136,  -0.4289
         9.3104, -68.4577,  35.5867,   1.7732,  -0.4279
         9.3130, -67.9326,  35.0142,   1.7973,  -0.4339
         9.3156, -68.0238,  34.8257,   1.7969,  -0.4344
         9.3183, -68.0870,  34.8929,   1.8021,  -0.4322
         9.3209, -67.6901,  34.5021,   1.8142,  -0.4369
         9.3235, -67.8117,  35.2167,   1.7829,  -0.4233
         9.3261, -68.5625,  35.1147,   1.7715,  -0.4341
         9.3287, -68.2418,  34.7683,   1.7917,  -0.4447
         9.3314, -67.8970,  34.8308,   1.7934,  -0.4363
         9.3340, -67.5156,  34.7930,   1.8053,  -0.4200
         9.3366, -67.7521,  34.6557,   1.8010,  -0.4301
         9.3392, -68.4178,  35.4690,   1.7593,  -0.4132
         9.3419, -66.6240,  34.9182,   1.8269,  -0.4056
         9.3445, -68.3768,  35.5631,   1.7563,  -0.4180
         9.3471, -67.7604,  35.1116,   1.7842,  -0.4222
         9.3498, -67.4272,  35.8733,   1.7887,  -0.3885
         9.3524, -67.8379,  34.3986,   1.7880,  -0.4434
         9.3550, -67.7070,  33.7071,   1.8045,  -0.4694
         9.3576, -66.8603,  34.8691,   1.8125,  -0.4108
         9.3603, -67.1620,  34.8491,   1.7941,  -0.4150
         9.3629, -67.2575,  34.1979,   1.8181,  -0.4350
         9.3655, -67.5755,  34.6864,   1.7937,  -0.4283
         9.3681, -67.2503,  34.3245,   1.8035,  -0.4360
         9.3707, -66.9391,  34.7851,   1.8109,  -0.4140
         9.3734, -66.6628,  34.6928,   1.8144,  -0.4046
         9.3760, -67.5802,  34.1819,   1.7929,  -0.4454
         9.3786, -66.7653,  34.4963,   1.8181,  -0.4086
         9.3812, -67.4035,  34.6786,   1.7828,  -0.4263
         9.3839, -66.8134,  34.1130,   1.8101,  -0.4311
         9.3865, -66.5953,  34.9065,   1.8077,  -0.4004
         9.3891, -66.4538,  34.2493,   1.8244,  -0.4221
         9.3918, -67.0392,  34.8358,   1.7915,  -0.4089
         9.3944, -67.4964,  34.4763,   1.7805,  -0.4305
         9.3970, -66.3299,  33.9437,   1.8238,  -0.4299
         9.3996, -66.7623,  33.9870,   1.8117,  -0.4297
         9.4023, -66.4707,  34.0595,   1.8176,  -0.4274
         9.4049, -66.2278,  34.5867,   1.8206,  -0.4024
         9.4075, -66.7795,  34.2937,   1.8011,  -0.4265
         9.4101, -66.9351,  34.1341,   1.8023,  -0.4266
         9.4128, -66.9108,  34.3044,   1.7984,  -0.4198
         9.4154, -66.4877,  34.2787,   1.8059,  -0.4206
         9.4180, -66.4015,  33.9866,   1.8151,  -0.4203
         9.4206, -66.2972,  34.0764,   1.8155,  -0.4148
         9.4232, -66.5341,  34.3598,   1.8007,  -0.4156
         9.4259, -66.5366,  34.6176,   1.7895,  -0.4056
         9.4285, -66.6843,  34.3118,   1.7904,  -0.4160
         9.4311, -67.0665,  34.0553,   1.7916,  -0.4340
         9.4337, -66.8971,  34.4542,   1.7809,  -0.4178
         9.4364, -66.3269,  33.8230,   1.8128,  -0.4385
         9.4390, -66.1212,  33.7355,   1.8130,  -0.4324
         9.4416, -66.0610,  34.0848,   1.8103,  -0.4160
         9.4443, -66.9037,  34.4068,   1.7767,  -0.4177
         9.4469, -66.1395,  33.8269,   1.8128,  -0.4241
         9.4495, -66.2971,  33.6445,   1.8085,  -0.4364
         9.4521, -66.7025,  34.3096,   1.7873,  -0.4159
         9.4548, -66.9145,  33.4610,   1.7929,  -0.4426
         9.4574, -65.9097,  33.8504,   1.8147,  -0.4205
         9.4600, -66.0158,  33.8541,   1.8028,  -0.4235
         9.4626, -66.3246,  34.3023,   1.7831,  -0.4114
         9.4652, -66.7309,  34.2524,   1.7773,  -0.4149
         9.4679, -66.0118,  33.8288,   1.8025,  -0.4090
         9.4705, -65.8451,  33.8619,   1.8055,  -0.4217
         9.4731, -65.7839,  33.0650,   1.8263,  -0.4428
         9.4757, -65.9158,  34.2841,   1.7943,  -0.3956
         9.4784, -66.3389,  33.4747,   1.7917,  -0.4307
         9.4810, -65.2625,  33.6234,   1.8265,  -0.4148
         9.4836, -65.8417,  33.4729,   1.8008,  -0.4238
         9.4863, -65.6194,  33.7498,   1.8133,  -0.4131
         9.4889, -65.7534,  33.8778,   1.8113,  -0.4043
         9.4915, -65.3375,  33.0879,   1.8274,  -0.4347
         9.4941, -65.5145,  33.1520,   1.8241,  -0.4403
         9.4968, -66.3281,  33.5633,   1.7798,  -0.4314
         9.4994, -65.4675,  33.5626,   1.8141,  -0.4162
         9.5020, -65.8114,  32.9782,   1.8056,  -0.4514
         9.5046, -65.1856,  33.2209,   1.8243,  -0.4272
         9.5073, -65.7250,  33.6529,   1.8027,  -0.4186
         9.5099, -65.3657,  33.7399,   1.8003,  -0.4045
         9.5125, -65.4330,  33.3232,   1.8124,  -0.4177
         9.5151, -65.2909,  33.5335,   1.8107,  -0.4145
         9.5177, -64.8250,  33.7587,   1.8223,  -0.3966
         9.5204, -65.0384,  32.5276,   1.8364,  -0.4497
         9.5230, -64.9195,  33.0754,   1.8313,  -0.4257
         9.5256, -65.4290,  32.9360,   1.8121,  -0.4313
         9.5282, -64.3423,  33.1653,   1.8465,  -0.4121
         9.5309, -65.1733,  33.6387,   1.8041,  -0.4043
         9.5335, -65.4490,  32.7513,   1.8053,  -0.4482
         9.5361, -64.8945,  32.9348,   1.8228,  -0.4146
         9.5388, -64.9418,  32.6371,   1.8293,  -0.4353
         9.5414, -64.8566,  33.5192,   1.8113,  -0.4066
         9.5440, -64.4770,  33.0556,   1.8276,  -0.4154
         9.5466, -64.3650,  33.1896,   1.8368,  -0.4003
         9.5493, -64.5199,  32.8002,   1.8446,  -0.4136
         9.5519, -64.0601,  33.2761,   1.8489,  -0.3876
         9.5545, -64.4867,  33.0752,   1.8252,  -0.4099
         9.5571, -64.5421,  33.0641,   1.8171,  -0.4029
         9.5597, -64.7720,  32.9788,   1.8201,  -0.4192
         9.5624, -64.4229,  32.7509,   1.8291,  -0.4226
         9.5650, -64.7981,  32.3353,   1.8260,  -0.4436
         9.5676, -65.0443,  32.8331,   1.8059,  -0.4346
         9.5702, -64.6154,  32.8618,   1.8213,  -0.4211
         9.5729, -64.7929,  33.1248,   1.8021,  -0.4095
         9.5755, -64.5320,  32.6967,   1.8113,  -0.4154
         9.5781, -64.5490,  32.9536,   1.8155,  -0.4197
         9.5808, -65.3415,  32.3980,   1.7924,  -0.4505
         9.5834, -64.1794,  32.6999,   1.8343,  -0.4094
         9.5860, -64.1280,  32.0699,   1.8414,  -0.4280
         9.5886, -63.8449,  33.0465,   1.8338,  -0.3925
         9.5913, -65.0079,  32.3877,   1.7944,  -0.4369
         9.5939, -64.7324,  32.5038,   1.8110,  -0.4297
         9.5965, -65.2438,  32.3213,   1.7816,  -0.4476
         9.5991, -64.5504,  32.2108,   1.8128,  -0.4289
         9.6017, -64.5503,  32.1180,   1.8169,  -0.4346
         9.6044, -64.6851,  32.3034,   1.8035,  -0.4349
         9.6070, -64.7182,  32.2400,   1.8056,  -0.4399
         9.6096, -64.5813,  33.0753,   1.7933,  -0.3998
         9.6122, -63.7734,  32.0968,   1.8268,  -0.4162
         9.6149, -64.7473,  32.4311,   1.7902,  -0.4278
         9.6175, -64.6202,  32.4750,   1.8005,  -0.4359
         9.6201, -64.0121,  32.4640,   1.8202,  -0.4126
         9.6227, -64.4463,  32.0707,   1.8159,  -0.4343
         9.6254, -64.8578,  32.0279,   1.8007,  -0.4445
         9.6280, -64.5979,  32.7988,   1.7843,  -0.4079
         9.6306, -64.3177,  32.3772,   1.7964,  -0.4113
         9.6333, -63.9845,  32.2607,   1.8245,  -0.4176
         9.6359, -63.9725,  32.4116,   1.8108,  -0.4199
         9.6385, -64.1055,  32.2591,   1.7987,  -0.4178
         9.6411, -64.0077,  32.4142,   1.8035,  -0.4224
         9.6438, -64.0556,  31.8139,   1.8144,  -0.4367
         9.6464, -64.0539,  32.2989,   1.8084,  -0.4156
         9.6490, -63.0414,  32.3803,   1.8412,  -0.3945
         9.6516, -63.6562,  32.0825,   1.8219,  -0.4149
         9.6542, -63.0186,  32.4949,   1.8367,  -0.4007
         9.6569, -62.8387,  31.1094,   1.8673,  -0.4437
         9.6595, -63.5138,  31.9353,   1.8254,  -0.4175
         9.6621, -63.5970,  31.7733,   1.8331,  -0.4252
         9.6647, -63.6597,  32.0790,   1.8171,  -0.4187
         9.6674, -63.5977,  31.7812,   1.8223,  -0.4227
         9.6700, -63.2225,  31.9546,   1.8318,  -0.4069
         9.6726, -62.7443,  32.1295,   1.8450,  -0.3994
         9.6753, -63.3196,  32.2290,   1.8182,  -0.3998
         9.6779, -63.0367,  31.8527,   1.8438,  -0.4112
         9.6805, -62.7151,  31.3128,   1.8568,  -0.4261
         9.6831, -63.9516,  32.8508,   1.7821,  -0.3923
         9.6858, -63.0678,  31.7955,   1.8363,  -0.4137
         9.6884, -62.9483,  31.7404,   1.8390,  -0.4130
         9.6910, -62.2376,  31.8987,   1.8583,  -0.4002
         9.6936, -62.8354,  31.2003,   1.8534,  -0.4229
         9.6962, -62.3825,  31.8465,   1.8538,  -0.4024
         9.6989, -63.4223,  31.4095,   1.8226,  -0.4413
         9.7015, -63.0245,  31.6712,   1.8351,  -0.4078
         9.7041, -62.8314,  31.4042,   1.8384,  -0.4190
         9.7067, -62.9278,  31.7022,   1.8309,  -0.4122
         9.7094, -63.1951,  31.6929,   1.8190,  -0.4128
         9.7120, -62.7170,  31.4894,   1.8444,  -0.4181
         9.7146, -63.1813,  31.5175,   1.8263,  -0.4256
         9.7172, -62.9530,  31.0443,   1.8342,  -0.4384
         9.7199, -62.7651,  31.7249,   1.8333,  -0.4031
         9.7225, -62.9458,  31.3058,   1.8362,  -0.4165
         9.7251, -63.1343,  31.8320,   1.8195,  -0.4051
         9.7278, -62.2553,  31.4195,   1.8462,  -0.4056
         9.7304, -63.4705,  31.5952,   1.7969,  -0.4333
         9.7330, -62.6340,  31.6521,   1.8158,  -0.4052
         9.7356, -62.7555,  30.6979,   1.8449,  -0.4436
         9.7383, -62.9162,  31.1420,   1.8365,  -0.4262
         9.7409, -63.2698,  31.3855,   1.8009,  -0.4341
         9.7435, -62.5097,  31.6431,   1.8261,  -0.3983
         9.7461, -62.6594,  30.1815,   1.8493,  -0.4625
         9.7487, -62.7769,  32.2136,   1.7957,  -0.3831
         9.7514, -62.8778,  31.8072,   1.8054,  -0.4079
         9.7540, -62.8716,  31.1676,   1.8216,  -0.4323
         9.7566, -62.0313,  30.8561,   1.8484,  -0.4311
         9.7592, -62.8202,  31.2379,   1.8187,  -0.4209
         9.7619, -62.9153,  30.9309,   1.8099,  -0.4337
         9.7645, -61.3263,  31.5023,   1.8590,  -0.3782
         9.7671, -62.3725,  31.4222,   1.8109,  -0.3971
         9.7698, -62.6158,  31.2452,   1.8087,  -0.4086
         9.7724, -62.3195,  31.3931,   1.8164,  -0.4116
         9.7750, -62.1144,  31.8232,   1.8092,  -0.3881
         9.7776, -62.2894,  31.2538,   1.8209,  -0.4142
         9.7803, -61.9424,  30.9768,   1.8347,  -0.4055
         9.7829, -62.3566,  31.3846,   1.8106,  -0.4064
         9.7855, -62.0252,  31.3359,   1.8265,  -0.3999
         9.7881, -62.2155,  31.2006,   1.8254,  -0.4041
         9.7907, -62.0769,  31.1747,   1.8312,  -0.4210
         9.7934, -61.9961,  31.0895,   1.8256,  -0.4067
         9.7960, -61.7422,  30.9916,   1.8331,  -0.4029
         9.7986, -61.6646,  31.0066,   1.8327,  -0.4088
         9.8012, -61.7938,  31.1581,   1.8349,  -0.4097
         9.8039, -61.8895,  30.8883,   1.8279,  -0.4162
         9.8065, -61.8518,  31.2131,   1.8210,  -0.4002
         9.8091, -61.9541,  30.7085,   1.8299,  -0.4231
         9.8118, -62.0477,  31.1843,   1.8133,  -0.4041
         9.8144, -61.4763,  30.6025,   1.8561,  -0.4155
         9.8170, -61.3847,  30.8724,   1.8442,  -0.4012
         9.8196, -61.1795,  30.7360,   1.8516,  -0.4029
         9.8223, -61.6239,  30.6395,   1.8449,  -0.4059
         9.8249, -61.3681,  30.5356,   1.8489,  -0.4181
         9.8275, -61.3578,  31.2852,   1.8264,  -0.3814
         9.8301, -61.5192,  31.0278,   1.8277,  -0.4030
         9.8328, -61.4602,  29.3871,   1.8574,  -0.4613
         9.8354, -61.5014,  30.6022,   1.8336,  -0.4142
         9.8380, -61.4148,  30.4734,   1.8354,  -0.4165
         9.8406, -61.2731,  30.0651,   1.8485,  -0.4335
         9.8432, -61.1437,  30.4760,   1.8504,  -0.4154
         9.8459, -61.1592,  30.9592,   1.8348,  -0.3930
         9.8485, -62.2342,  30.1550,   1.8071,  -0.4454
         9.8511, -61.0613,  30.7127,   1.8382,  -0.3974
         9.8537, -61.0121,  30.5330,   1.8442,  -0.3976
         9.8564, -61.6167,  30.5382,   1.8145,  -0.4208
         9.8590, -61.8607,  30.4395,   1.8132,  -0.4282
         9.8616, -61.1759,  30.5927,   1.8379,  -0.3990
         9.8643, -61.2860,  30.3406,   1.8371,  -0.4167
         9.8669, -61.2408,  30.2470,   1.8387,  -0.4142
         9.8695, -61.2926,  30.4269,   1.8234,  -0.4148
         9.8721, -61.1079,  30.4774,   1.8349,  -0.4086
         9.8748, -61.1925,  30.5144,   1.8294,  -0.4197
         9.8774, -61.2977,  30.1604,   1.8303,  -0.4163
         9.8800, -61.0061,  30.3275,   1.8367,  -0.4094
         9.8826, -61.2272,  30.2824,   1.8242,  -0.4163
         9.8852, -61.0068,  30.7087,   1.8356,  -0.4008
         9.8879, -60.5999,  30.1340,   1.8526,  -0.4058
         9.8905, -61.5789,  29.6487,   1.8180,  -0.4408
         9.8931, -61.0947,  30.5536,   1.8110,  -0.4052
         9.8957, -61.2707,  29.7600,   1.8284,  -0.4334
         9.8984, -61.0482,  30.1221,   1.8230,  -0.4147
         9.9010, -61.4446,  30.3390,   1.8092,  -0.4152
         9.9036, -61.2517,  30.2574,   1.8129,  -0.4112
         9.9063, -61.6402,  30.2593,   1.8041,  -0.4270
         9.9089, -60.8404,  29.8608,   1.8350,  -0.4214
         9.9115, -61.4486,  29.6785,   1.8144,  -0.4415
         9.9141, -60.8521,  29.6912,   1.8411,  -0.4224
         9.9168, -61.3522,  30.2501,   1.7973,  -0.4145
         9.9194, -60.6355,  30.1228,   1.8244,  -0.4050
         9.9220, -60.3823,  30.7544,   1.8253,  -0.3765
         9.9246, -60.3318,  29.7277,   1.8450,  -0.4127
         9.9273, -60.1336,  30.5558,   1.8352,  -0.3850
         9.9299, -60.4243,  30.0730,   1.8322,  -0.3973
         9.9325, -60.5274,  29.5578,   1.8453,  -0.4156
         9.9351, -60.5921,  30.3290,   1.8192,  -0.3928
         9.9377, -60.3945,  29.7333,   1.8421,  -0.4164
         9.9404, -60.1074,  29.9887,   1.8477,  -0.4004
         9.9430, -60.3002,  30.5433,   1.8163,  -0.3836
         9.9456, -60.2244,  30.0966,   1.8292,  -0.3924
         9.9482, -60.1433,  29.8224,   1.8453,  -0.4065
         9.9509, -60.3939,  29.8163,   1.8331,  -0.4104
         9.9535, -60.5431,  29.7017,   1.8273,  -0.4186
         9.9561, -60.2493,  29.7425,   1.8247,  -0.4044
         9.9588, -60.2525,  29.6552,   1.8407,  -0.4067
         9.9614, -60.0885,  29.9465,   1.8324,  -0.4019
         9.9640, -60.2066,  29.7338,   1.8323,  -0.4122
         9.9666, -60.3716,  29.7610,   1.8377,  -0.4093
         9.9693, -60.3437,  29.2080,   1.8272,  -0.4303
         9.9719, -59.8274,  29.8423,   1.8389,  -0.3902
         9.9745, -60.0898,  29.9557,   1.8244,  -0.3927
         9.9771, -59.8275,  30.0641,   1.8303,  -0.3890
         9.9797, -60.0973,  30.0608,   1.8211,  -0.3973
         9.9824, -59.5478,  29.2260,   1.8647,  -0.4095
         9.9850, -60.3675,  29.3075,   1.8212,  -0.4309
         9.9876, -60.2732,  29.2171,   1.8277,  -0.4316
         9.9902, -59.7931,  29.9558,   1.8351,  -0.3898
         9.9929, -59.8500,  29.6580,   1.8342,  -0.3952
         9.9955, -60.2205,  29.8580,   1.8104,  -0.3948
         9.9981, -60.0859,  29.3694,   1.8264,  -0.4208
        10.0008, -59.4298,  29.3082,   1.8629,  -0.4035
        10.0034, -59.4059,  29.6828,   1.8496,  -0.3825
        10.0060, -60.0150,  28.9549,   1.8298,  -0.4363
        10.0086, -60.2420,  28.9897,   1.8249,  -0.4402
        10.0113, -60.8498,  28.7525,   1.8028,  -0.4537
        10.0139, -59.7509,  29.3888,   1.8353,  -0.4128
        10.0165, -59.6330,  29.1012,   1.8379,  -0.4195
        10.0191, -59.7195,  29.6721,   1.8267,  -0.3859
        10.0218, -59.5015,  29.0077,   1.8340,  -0.4219
        10.0244, -59.7177,  29.5906,   1.8270,  -0.3968
        10.0270, -59.6509,  28.7472,   1.8332,  -0.4278
        10.0296, -59.9537,  28.9077,   1.8254,  -0.4288
        10.0322, -59.4176,  29.4674,   1.8348,  -0.3927
        10.0349, -59.6381,  28.9303,   1.8292,  -0.4209
        10.0375, -59.5368,  29.1961,   1.8293,  -0.4206
        10.0401, -60.0956,  29.1189,   1.8133,  -0.4300
        10.0428, -59.4660,  28.8477,   1.8331,  -0.4312
        10.0454, -59.5423,  28.9454,   1.8309,  -0.4179
        10.0480, -59.3015,  29.1265,   1.8462,  -0.4014
        10.0506, -60.0200,  28.9222,   1.8083,  -0.4250
        10.0533, -59.3550,  28.8533,   1.8400,  -0.4119
        10.0559, -59.0164,  29.2305,   1.8349,  -0.3937
        10.0585, -59.7631,  28.9459,   1.8110,  -0.4269
        10.0611, -59.3153,  28.4427,   1.8422,  -0.4297
        10.0638, -58.8992,  29.4705,   1.8419,  -0.3791
        10.0664, -58.5688,  29.1428,   1.8561,  -0.3886
        10.0690, -58.7804,  29.1817,   1.8487,  -0.3939
        10.0716, -58.9521,  29.4997,   1.8343,  -0.3843
        10.0742, -59.1533,  28.9133,   1.8307,  -0.4104
        10.0769, -58.7223,  28.6748,   1.8449,  -0.4103
        10.0795, -58.9946,  29.3990,   1.8209,  -0.3974
        10.0821, -58.1599,  28.6591,   1.8790,  -0.3926
        10.0848, -58.7438,  29.3282,   1.8432,  -0.3888
        10.0874, -58.5482,  28.7590,   1.8528,  -0.3991
        10.0900, -58.5095,  29.0629,   1.8417,  -0.3829
        10.0926, -58.3397,  29.3619,   1.8466,  -0.3772
        10.0953, -58.8382,  28.4560,   1.8530,  -0.4189
        10.0979, -58.5298,  28.6708,   1.8558,  -0.3987
        10.1005, -58.5029,  28.5594,   1.8625,  -0.4096
        10.1031, -57.8004,  28.7150,   1.8774,  -0.3858
        10.1058, -58.5528,  28.8912,   1.8336,  -0.3871
        10.1084, -58.6961,  28.4365,   1.8333,  -0.4188
        10.1110, -58.6820,  28.8103,   1.8297,  -0.3992
        10.1136, -58.1092,  28.0342,   1.8660,  -0.4190
        10.1163, -58.5953,  28.4595,   1.8457,  -0.4096
        10.1189, -58.2433,  28.4892,   1.8519,  -0.3942
        10.1215, -58.7235,  28.5674,   1.8402,  -0.4101
        10.1241, -58.5275,  28.0622,   1.8636,  -0.4256
        10.1267, -58.2079,  28.2327,   1.8628,  -0.4086
        10.1294, -58.4575,  27.9647,   1.8440,  -0.4268
        10.1320, -58.3505,  28.3224,   1.8382,  -0.4081
        10.1346, -57.9570,  28.1838,   1.8640,  -0.4138
        10.1373, -58.6614,  28.6520,   1.8245,  -0.4058
        10.1399, -58.2060,  27.6849,   1.8595,  -0.4364
        10.1425, -58.7271,  28.6847,   1.8200,  -0.4015
        10.1451, -58.1994,  28.3900,   1.8464,  -0.4039
        10.1478, -58.7445,  28.0916,   1.8240,  -0.4355
        10.1504, -58.5039,  27.9664,   1.8435,  -0.4324
        10.1530, -58.0630,  28.4986,   1.8539,  -0.3975
        10.1556, -57.6813,  28.0357,   1.8653,  -0.4131
        10.1583, -58.9321,  28.1592,   1.8106,  -0.4279
        10.1609, -58.2746,  27.6914,   1.8522,  -0.4401
        10.1635, -58.0779,  28.2167,   1.8434,  -0.4108
        10.1661, -58.0386,  27.4977,   1.8588,  -0.4346
        10.1687, -58.1311,  28.0088,   1.8389,  -0.4232
        10.1714, -58.0176,  28.0453,   1.8474,  -0.4133
        10.1740, -58.3542,  28.0392,   1.8286,  -0.4327
        10.1766, -58.3530,  28.2715,   1.8159,  -0.4160
        10.1793, -58.3013,  27.9443,   1.8256,  -0.4283
        10.1819, -58.0790,  28.5876,   1.8308,  -0.3913
        10.1845, -58.0348,  27.7103,   1.8547,  -0.4328
        10.1871, -57.8599,  28.3639,   1.8312,  -0.4053
        10.1898, -58.3053,  28.4530,   1.8098,  -0.4043
        10.1924, -57.8707,  28.4064,   1.8315,  -0.3907
        10.1950, -57.8335,  27.9366,   1.8424,  -0.4172
        10.1976, -57.9815,  28.1447,   1.8269,  -0.4041
        10.2003, -57.8215,  28.7403,   1.8219,  -0.3807
        10.2029, -57.5540,  28.3996,   1.8400,  -0.3867
        10.2055, -57.4737,  28.0663,   1.8495,  -0.4000
        10.2081, -57.8495,  28.4539,   1.8171,  -0.3891
        10.2108, -57.4812,  28.1340,   1.8382,  -0.3962
        10.2134, -57.8505,  28.2626,   1.8224,  -0.4035
        10.2160, -57.9293,  27.9985,   1.8267,  -0.4062
        10.2186, -57.1844,  28.2640,   1.8516,  -0.3752
        10.2213, -57.5616,  27.9095,   1.8486,  -0.3998
        10.2239, -57.2436,  27.6704,   1.8586,  -0.4102
        10.2265, -57.3615,  28.7612,   1.8241,  -0.3639
        10.2291, -56.7823,  28.0491,   1.8653,  -0.3755
        10.2318, -57.1036,  27.7498,   1.8527,  -0.3949
        10.2344, -57.1460,  28.3758,   1.8450,  -0.3758
        10.2370, -57.0871,  28.0407,   1.8476,  -0.3888
        10.2396, -57.1840,  28.1418,   1.8380,  -0.3941
        10.2423, -57.3643,  27.8843,   1.8438,  -0.3944
        10.2449, -56.7609,  27.4248,   1.8743,  -0.4097
        10.2475, -57.0164,  27.8404,   1.8526,  -0.3927
        10.2501, -57.0297,  28.1262,   1.8377,  -0.3798
        10.2528, -56.2291,  27.6078,   1.8914,  -0.3829
        10.2554, -56.9900,  27.7626,   1.8433,  -0.3936
        10.2580, -56.5133,  27.7745,   1.8720,  -0.3880
        10.2606, -57.3371,  27.4919,   1.8396,  -0.4174
        10.2632, -56.8037,  27.3134,   1.8682,  -0.4047
        10.2659, -56.4173,  27.3387,   1.8845,  -0.3985
        10.2685, -57.0207,  27.6210,   1.8466,  -0.4060
        10.2711, -56.8714,  27.6749,   1.8494,  -0.3990
        10.2738, -56.3431,  27.3767,   1.8744,  -0.3991
        10.2764, -57.1029,  27.4035,   1.8412,  -0.4141
        10.2790, -56.8263,  27.2835,   1.8619,  -0.4068
        10.2816, -56.7513,  27.1785,   1.8621,  -0.4122
        10.2843, -56.7823,  27.3778,   1.8528,  -0.4037
        10.2869, -56.3538,  27.2024,   1.8684,  -0.4023
        10.2895, -56.9630,  26.6312,   1.8536,  -0.4407
        10.2921, -56.4169,  27.2624,   1.8687,  -0.3994
        10.2948, -56.3135,  27.4091,   1.8752,  -0.3916
        10.2974, -56.7635,  27.1767,   1.8528,  -0.4175
        10.3000, -56.6144,  27.3301,   1.8559,  -0.4025
        10.3026, -56.5362,  27.3585,   1.8646,  -0.3992
        10.3052, -56.8420,  26.9898,   1.8519,  -0.4113
        10.3079, -56.8005,  27.0405,   1.8552,  -0.4185
        10.3105, -56.5666,  26.6959,   1.8619,  -0.4312
        10.3131, -56.4906,  26.5177,   1.8636,  -0.4339
        10.3158, -56.4279,  27.2904,   1.8568,  -0.4059
        10.3184, -56.7402,  27.1834,   1.8514,  -0.4073
        10.3210, -56.5885,  27.1440,   1.8429,  -0.4083
        10.3236, -56.7436,  26.9119,   1.8367,  -0.4222
        10.3263, -56.7173,  27.2598,   1.8354,  -0.4066
        10.3289, -56.3127,  26.9991,   1.8548,  -0.4116
        10.3315, -56.7263,  27.2032,   1.8290,  -0.4079
        10.3341, -56.7386,  27.3032,   1.8268,  -0.4073
        10.3368, -56.3360,  27.2236,   1.8500,  -0.4017
        10.3394, -56.8065,  27.4510,   1.8107,  -0.4013
        10.3420, -56.1559,  27.3829,   1.8553,  -0.3822
        10.3446, -56.4109,  27.5692,   1.8249,  -0.3805
        10.3473, -56.6297,  27.3495,   1.8213,  -0.3961
        10.3499, -56.5528,  27.0934,   1.8345,  -0.4047
        10.3525, -56.4253,  27.6497,   1.8222,  -0.3820
        10.3551, -56.3898,  27.0917,   1.8400,  -0.4006
        10.3577, -56.2405,  27.1223,   1.8423,  -0.4019
        10.3604, -56.5051,  26.7231,   1.8360,  -0.4253
        10.3630, -55.9850,  26.9675,   1.8449,  -0.3949
        10.3656, -56.3204,  26.9367,   1.8345,  -0.4114
        10.3683, -56.3235,  27.1476,   1.8326,  -0.4004
        10.3709, -56.2446,  27.1097,   1.8377,  -0.3984
        10.3735, -55.7591,  27.1142,   1.8603,  -0.3896
        10.3761, -55.7828,  26.9930,   1.8589,  -0.3931
        10.3788, -55.7499,  26.8324,   1.8561,  -0.3994
        10.3814, -56.0293,  27.0258,   1.8344,  -0.3870
        10.3840, -55.7215,  26.7183,   1.8560,  -0.4011
        10.3866, -55.6148,  26.6484,   1.8557,  -0.4071
        10.3893, -55.4068,  26.7939,   1.8719,  -0.3957
        10.3919, -55.8035,  26.9359,   1.8507,  -0.3967
        10.3945, -55.7277,  26.8820,   1.8556,  -0.3955
        10.3971, -55.4139,  27.3538,   1.8517,  -0.3655
        10.3997, -55.1699,  26.6377,   1.8838,  -0.3891
        10.4024, -55.3995,  26.6260,   1.8634,  -0.3951
        10.4050, -55.6189,  27.0432,   1.8480,  -0.3840
        10.4076, -55.7373,  26.7249,   1.8466,  -0.4014
        10.4103, -55.5299,  26.8346,   1.8507,  -0.3985
        10.4129, -55.6000,  26.3544,   1.8599,  -0.4062
        10.4155, -55.2351,  26.5525,   1.8640,  -0.3928
        10.4181, -54.7365,  26.7125,   1.8838,  -0.3719
        10.4208, -55.1231,  26.2827,   1.8709,  -0.4125
        10.4234, -55.1807,  25.9412,   1.8729,  -0.4221
        10.4260, -55.8002,  26.2128,   1.8417,  -0.4212
        10.4286, -54.5066,  26.4445,   1.8998,  -0.3845
        10.4313, -55.1287,  26.7162,   1.8685,  -0.3849
        10.4339, -54.8576,  26.6706,   1.8765,  -0.3781
        10.4365, -55.2315,  26.3479,   1.8646,  -0.3984
        10.4391, -55.1189,  26.6465,   1.8579,  -0.3805
        10.4418, -54.9749,  25.8334,   1.8870,  -0.4159
        10.4444, -55.2180,  26.0036,   1.8604,  -0.4150
        10.4470, -55.1957,  26.2020,   1.8580,  -0.4202
        10.4496, -55.4682,  26.0851,   1.8551,  -0.4184
        10.4522, -54.8355,  26.0629,   1.8803,  -0.4133
        10.4549, -55.7102,  26.1489,   1.8385,  -0.4192
        10.4575, -55.3089,  26.1714,   1.8552,  -0.4139
        10.4601, -55.5194,  25.7385,   1.8415,  -0.4361
        10.4628, -55.5064,  25.7529,   1.8480,  -0.4287
        10.4654, -55.1146,  26.0726,   1.8563,  -0.4120
        10.4680, -55.1418,  25.6372,   1.8661,  -0.4336
        10.4706, -55.2182,  25.9834,   1.8510,  -0.4125
        10.4733, -55.7643,  25.6043,   1.8297,  -0.4457
        10.4759, -55.1906,  26.1342,   1.8405,  -0.3981
        10.4785, -54.9190,  25.6880,   1.8583,  -0.4284
        10.4811, -54.6007,  26.6482,   1.8603,  -0.3720
        10.4838, -55.0375,  26.3247,   1.8402,  -0.3954
        10.4864, -54.9878,  26.3019,   1.8503,  -0.4052
        10.4890, -54.7415,  26.6284,   1.8472,  -0.3702
        10.4916, -54.8594,  25.7459,   1.8669,  -0.4158
        10.4942, -54.7875,  26.2273,   1.8537,  -0.3964
        10.4969, -55.0860,  26.0932,   1.8425,  -0.4018
        10.4995, -54.5898,  26.1916,   1.8512,  -0.3900
        10.5021, -54.4791,  26.0913,   1.8685,  -0.3809
        10.5048, -54.8720,  26.2749,   1.8458,  -0.3925
        10.5074, -54.5605,  26.0507,   1.8465,  -0.3963
        10.5100, -53.9305,  26.0555,   1.8711,  -0.3933
        10.5126, -54.6932,  25.6562,   1.8378,  -0.4052
        10.5153, -54.0741,  25.6748,   1.8839,  -0.4024
        10.5179, -54.2235,  26.2694,   1.8645,  -0.3776
        10.5205, -54.5098,  25.9656,   1.8754,  -0.3898
        10.5231, -54.3532,  25.8335,   1.8712,  -0.3988
        10.5258, -54.3737,  26.0551,   1.8727,  -0.3885
        10.5284, -54.4322,  25.9571,   1.8594,  -0.4009
        10.5310, -54.5501,  25.8410,   1.8483,  -0.3960
        10.5336, -53.9441,  25.4145,   1.8956,  -0.3986
        10.5363, -54.3404,  25.5569,   1.8895,  -0.3974
        10.5389, -54.2938,  25.7077,   1.8876,  -0.3736
        10.5415, -54.1279,  25.4846,   1.8673,  -0.4028
        10.5441, -53.6846,  25.6906,   1.8758,  -0.3902
        10.5467, -54.0298,  26.3130,   1.8765,  -0.3528
        10.5494, -54.5407,  25.4315,   1.8543,  -0.4174
        10.5520, -53.2814,  25.3529,   1.8941,  -0.3841
        10.5546, -53.6461,  25.6693,   1.8789,  -0.3843
        10.5573, -53.8239,  25.4952,   1.8634,  -0.4146
        10.5599, -54.2285,  25.3232,   1.8693,  -0.3967
        10.5625, -53.8741,  25.8856,   1.8681,  -0.3893
        10.5651, -53.4636,  25.2503,   1.8747,  -0.4021
        10.5678, -53.9150,  24.9384,   1.8658,  -0.4054
        10.5704, -53.7480,  25.1324,   1.8954,  -0.4039
        10.5730, -53.5574,  25.6663,   1.8788,  -0.3714
        10.5756, -53.6136,  24.6872,   1.8966,  -0.4281
        10.5783, -53.4658,  24.6970,   1.8672,  -0.4196
        10.5809, -53.7812,  25.2632,   1.8856,  -0.3895
        10.5835, -54.4700,  24.8893,   1.8577,  -0.4257
        10.5861, -53.4423,  24.9471,   1.8888,  -0.4282
        10.5887, -53.3648,  25.0431,   1.8824,  -0.4368
        10.5914, -53.3612,  25.5982,   1.8622,  -0.3870
        10.5940, -53.5420,  24.6793,   1.8846,  -0.4202
        10.5966, -53.2196,  25.3691,   1.8679,  -0.3994
        10.5993, -53.6104,  25.2867,   1.8771,  -0.3958
        10.6019, -53.6005,  24.9632,   1.8754,  -0.4204
        10.6045, -53.5245,  24.7958,   1.8902,  -0.4224
        10.6071, -53.9792,  25.1539,   1.8756,  -0.3987
        10.6098, -53.0801,  25.0264,   1.8952,  -0.3934
        10.6124, -53.3585,  24.9378,   1.8808,  -0.4293
        10.6150, -53.1530,  25.1871,   1.8679,  -0.4063
        10.6176, -53.6036,  24.8153,   1.8776,  -0.4003
        10.6203, -53.1635,  24.9106,   1.8736,  -0.4060
        10.6229, -53.3624,  24.5477,   1.8630,  -0.4368
        10.6255, -53.3121,  24.8113,   1.8770,  -0.4069
        10.6281, -53.0964,  24.2639,   1.8793,  -0.4205
        10.6308, -53.2204,  24.7769,   1.8684,  -0.3977
        10.6334, -53.5442,  24.8468,   1.8661,  -0.4449
        10.6360, -52.4017,  24.7655,   1.8805,  -0.3886
        10.6386, -52.7184,  25.1732,   1.8667,  -0.3991
        10.6412, -53.0677,  24.6073,   1.8801,  -0.3976
        10.6439, -53.3931,  24.9715,   1.8839,  -0.4039
        10.6465, -53.2715,  25.0662,   1.8893,  -0.4079
        10.6491, -52.5345,  25.5950,   1.8855,  -0.3593
        10.6518, -53.2862,  24.6588,   1.8673,  -0.4120
        10.6544, -52.7589,  24.2589,   1.9039,  -0.4229
        10.6570, -52.5753,  24.9266,   1.8871,  -0.3964
        10.6596, -52.7125,  25.1103,   1.8953,  -0.4161
        10.6623, -52.6199,  25.1004,   1.8688,  -0.3739
        10.6649, -53.1767,  24.9823,   1.8765,  -0.3856
        10.6675, -53.4772,  24.9899,   1.8744,  -0.4141
        10.6701, -52.2399,  24.6054,   1.8960,  -0.3893
        10.6728, -52.5222,  25.2815,   1.8816,  -0.4076
        10.6754, -52.4433,  25.2406,   1.8737,  -0.3533
        10.6780, -52.3435,  25.3671,   1.8835,  -0.3695
        10.6806, -52.5436,  24.3287,   1.8991,  -0.3953
        10.6832, -52.8766,  24.5063,   1.8852,  -0.4076
        10.6859, -52.8918,  24.5193,   1.8828,  -0.4015
        10.6885, -52.4297,  24.6406,   1.8832,  -0.3826
        10.6911, -52.6088,  24.6400,   1.8773,  -0.3682
        10.6938, -52.4562,  24.7993,   1.8847,  -0.3945
        10.6964, -52.4279,  24.9645,   1.8777,  -0.3779
        10.6990, -52.1160,  24.6913,   1.8788,  -0.4128
        10.7016, -52.5618,  24.7948,   1.8832,  -0.3988
        10.7043, -52.6620,  24.4483,   1.8841,  -0.3889
        10.7069, -52.1732,  24.6665,   1.9050,  -0.3895
        10.7095, -52.0527,  24.5486,   1.8735,  -0.3878
        10.7121, -52.6590,  24.5507,   1.8757,  -0.3978
        10.7148, -52.0127,  24.7689,   1.8879,  -0.3866
        10.7174, -51.7003,  24.1844,   1.9216,  -0.3987
        10.7200, -52.7764,  24.3161,   1.8802,  -0.4165
        10.7226, -51.8739,  24.7260,   1.9014,  -0.3687
        10.7253, -51.7264,  24.5265,   1.9015,  -0.3801
        10.7279, -52.2257,  24.0402,   1.8859,  -0.4024
        10.7305, -51.8011,  25.0035,   1.8744,  -0.3755
        10.7331, -52.3882,  24.7118,   1.8570,  -0.3913
        10.7357, -52.0733,  24.5011,   1.8690,  -0.3968
        10.7384, -52.1095,  24.6758,   1.8695,  -0.3793
        10.7410, -52.0663,  24.3485,   1.8830,  -0.4031
        10.7436, -52.6928,  24.5624,   1.8703,  -0.3972
        10.7463, -51.8963,  24.6138,   1.8864,  -0.3764
        10.7489, -52.0160,  24.7889,   1.8799,  -0.4042
        10.7515, -52.5339,  24.5310,   1.8683,  -0.4029
        10.7541, -51.8571,  23.9172,   1.9150,  -0.4078
        10.7568, -51.5521,  24.2312,   1.8814,  -0.4101
        10.7594, -51.6570,  23.8582,   1.8991,  -0.4248
        10.7620, -52.0282,  24.2702,   1.8876,  -0.4167
        10.7646, -52.1432,  24.2178,   1.8868,  -0.4002
        10.7673, -51.9724,  23.9660,   1.8895,  -0.4100
        10.7699, -51.7156,  24.6711,   1.8741,  -0.3937
        10.7725, -51.7383,  24.5154,   1.8802,  -0.3867
        10.7751, -52.0404,  24.0816,   1.8974,  -0.4081
        10.7777, -51.6123,  24.1009,   1.8849,  -0.3947
        10.7804, -51.7756,  24.1046,   1.8816,  -0.3957
        10.7830, -52.0975,  23.7913,   1.8845,  -0.4058
        10.7856, -51.5172,  24.0075,   1.8964,  -0.4005
        10.7883, -51.4196,  24.3144,   1.9034,  -0.3980
        10.7909, -51.3849,  24.4785,   1.8867,  -0.3689
        10.7935, -52.2767,  24.4857,   1.8674,  -0.3844
        10.7961, -51.7714,  24.2062,   1.8778,  -0.3828
        10.7988, -51.7830,  24.2364,   1.8794,  -0.3829
        10.8014, -51.2295,  24.3361,   1.9042,  -0.3687
        10.8040, -50.9609,  23.9151,   1.8897,  -0.4109
        10.8066, -51.4285,  25.2043,   1.8801,  -0.3637
        10.8093, -51.4983,  23.8348,   1.9092,  -0.4012
        10.8119, -51.1081,  24.4846,   1.8910,  -0.3873
        10.8145, -51.3960,  23.8269,   1.8739,  -0.4104
        10.8171, -51.3335,  24.2156,   1.8686,  -0.3971
        10.8198, -50.5813,  24.6952,   1.9159,  -0.3408
        10.8224, -51.5209,  23.9451,   1.8748,  -0.3953
        10.8250, -51.0325,  24.1300,   1.9145,  -0.3832
        10.8276, -50.9829,  23.9658,   1.9077,  -0.3857
        10.8302, -51.3749,  24.0302,   1.8838,  -0.3886
        10.8329, -51.1744,  23.8609,   1.9003,  -0.3731
        10.8355, -51.3124,  23.4204,   1.8899,  -0.4199
        10.8381, -50.7255,  23.9193,   1.8995,  -0.3885
        10.8408, -51.1093,  23.2965,   1.8974,  -0.4027
        10.8434, -51.2771,  24.0039,   1.8851,  -0.3889
        10.8460, -51.3941,  23.7197,   1.8785,  -0.3946
        10.8486, -50.9135,  23.7228,   1.8946,  -0.4125
        10.8513, -51.2375,  23.8547,   1.8934,  -0.4017
        10.8539, -51.0346,  23.7953,   1.8867,  -0.3802
        10.8565, -51.0619,  23.7532,   1.8869,  -0.3794
        10.8591, -51.1070,  23.7592,   1.8954,  -0.3996
        10.8618, -51.4429,  23.2974,   1.9007,  -0.3964
        10.8644, -50.8463,  23.6026,   1.8826,  -0.4124
        10.8670, -51.2575,  23.5311,   1.8859,  -0.4014
        10.8696, -50.8234,  23.2526,   1.8940,  -0.4272
        10.8722, -50.7382,  23.7041,   1.9055,  -0.4064
        10.8749, -50.7915,  23.9577,   1.8893,  -0.3930
        10.8775, -51.0876,  23.8685,   1.8714,  -0.3867
        10.8801, -51.0450,  23.5546,   1.8818,  -0.4040
        10.8828, -50.4463,  23.8558,   1.8986,  -0.3712
        10.8854, -50.8854,  24.0124,   1.8887,  -0.3870
        10.8880, -50.3606,  23.9003,   1.8823,  -0.4044
        10.8906, -50.6084,  23.7864,   1.9030,  -0.3490
        10.8933, -50.6496,  23.7429,   1.8757,  -0.3761
        10.8959, -50.9885,  23.5971,   1.8767,  -0.4082
        10.8985, -51.4546,  23.9651,   1.8619,  -0.4017
        10.9011, -50.6828,  23.2066,   1.8806,  -0.3946
        10.9038, -50.5543,  23.1873,   1.9119,  -0.4270
        10.9064, -50.7259,  23.2965,   1.8930,  -0.4022
        10.9090, -50.4102,  23.9084,   1.8718,  -0.3779
        10.9116, -50.4335,  23.5670,   1.8857,  -0.3978
        10.9142, -50.5740,  23.0776,   1.8945,  -0.3992
        10.9169, -50.6339,  23.7692,   1.8771,  -0.3952
        10.9195, -50.4182,  23.4361,   1.9025,  -0.3738
        10.9221, -50.8343,  23.7471,   1.8768,  -0.3861
        10.9248, -50.6344,  23.5102,   1.8871,  -0.3868
        10.9274, -50.7268,  23.3883,   1.8798,  -0.3885
        10.9300, -50.3586,  23.8206,   1.8899,  -0.3833
        10.9326, -50.3061,  23.7504,   1.8794,  -0.3916
        10.9353, -50.2484,  23.4815,   1.8890,  -0.3817
        10.9379, -50.3812,  23.7808,   1.8872,  -0.3834
        10.9405, -50.3087,  23.3455,   1.9004,  -0.3844
        10.9431, -50.3298,  23.6753,   1.9012,  -0.3666
        10.9458, -49.9467,  23.4261,   1.8929,  -0.3878
        10.9484, -50.7207,  23.6762,   1.8912,  -0.3533
        10.9510, -50.4231,  23.2269,   1.9098,  -0.3904
        10.9536, -49.8863,  22.9028,   1.8900,  -0.3965
        10.9563, -49.9046,  23.3259,   1.8840,  -0.3770
        10.9589, -49.7538,  23.3882,   1.8762,  -0.3905
        10.9615, -49.7706,  23.5671,   1.9163,  -0.3711
        10.9641, -49.6181,  23.0818,   1.9128,  -0.3796
        10.9667, -50.1708,  23.7410,   1.8837,  -0.3724
        10.9694, -49.6822,  23.8844,   1.8887,  -0.3709
        10.9720, -50.0409,  23.0381,   1.8973,  -0.3953
        10.9746, -49.5543,  23.6818,   1.9185,  -0.3647
        10.9773, -49.3913,  23.4730,   1.9151,  -0.3549
        10.9799, -50.2944,  23.6143,   1.8738,  -0.3824
        10.9825, -50.3411,  23.0179,   1.8891,  -0.3941
        10.9851, -49.7334,  22.7718,   1.9045,  -0.3870
        10.9878, -49.7821,  22.5045,   1.9223,  -0.4029
        10.9904, -49.7575,  22.9335,   1.8932,  -0.3768
        10.9930, -49.9526,  23.0228,   1.8914,  -0.4158
        10.9956, -50.0197,  22.8421,   1.9006,  -0.3839
        10.9983, -50.4833,  23.4244,   1.8617,  -0.3910
        11.0009, -49.7317,  22.9153,   1.9059,  -0.3669
        11.0035, -49.4160,  23.2281,   1.8937,  -0.3783
        11.0061, -49.3809,  22.8284,   1.9104,  -0.4088
        11.0087, -49.5039,  22.5536,   1.9076,  -0.3929
        11.0114, -49.6666,  22.6669,   1.9066,  -0.3825
        11.0140, -49.7407,  22.7452,   1.8968,  -0.4151
        11.0166, -49.1320,  23.0420,   1.9165,  -0.3906
        11.0193, -49.6328,  23.0332,   1.9007,  -0.3987
        11.0219, -49.5022,  22.7040,   1.9042,  -0.4087
        11.0245, -49.3797,  22.8294,   1.8993,  -0.4007
        11.0271, -48.9492,  22.6882,   1.9370,  -0.3845
        11.0298, -49.9680,  22.6708,   1.8959,  -0.4186
        11.0324, -49.5756,  22.7517,   1.8787,  -0.3937
        11.0350, -49.0488,  22.6911,   1.9074,  -0.3992
        11.0376, -49.4813,  22.9489,   1.9123,  -0.3904
        11.0403, -49.3650,  22.5334,   1.8987,  -0.3964
        11.0429, -49.3615,  22.8899,   1.8957,  -0.3929
        11.0455, -49.7835,  22.9301,   1.8739,  -0.3915
        11.0481, -49.3271,  23.0224,   1.9088,  -0.3983
        11.0508, -49.3918,  22.7954,   1.8976,  -0.3899
        11.0534, -49.5728,  22.7859,   1.8853,  -0.4130
        11.0560, -49.1272,  23.0911,   1.9170,  -0.3860
        11.0586, -49.3703,  22.8014,   1.8880,  -0.3813
        11.0612, -49.0215,  23.4952,   1.8932,  -0.3495
        11.0639, -49.2432,  23.0562,   1.8918,  -0.3844
        11.0665, -49.1504,  22.7952,   1.8980,  -0.3805
        11.0691, -48.9909,  22.9335,   1.9019,  -0.3639
        11.0718, -49.6701,  22.7531,   1.8809,  -0.3610
        11.0744, -49.3602,  22.7971,   1.8993,  -0.3880
        11.0770, -49.0587,  22.9496,   1.9065,  -0.3714
        11.0796, -48.8448,  23.0770,   1.8845,  -0.3638
        11.0823, -49.1680,  22.9312,   1.9007,  -0.3681
        11.0849, -49.1570,  22.7043,   1.8992,  -0.3871
        11.0875, -49.7067,  22.8121,   1.8628,  -0.3838
        11.0901, -48.9037,  22.9407,   1.8904,  -0.3841
        11.0928, -49.0358,  22.8418,   1.8977,  -0.3750
        11.0954, -48.6719,  23.0093,   1.9037,  -0.3699
        11.0980, -48.5903,  23.0729,   1.9041,  -0.3545
        11.1006, -48.4381,  22.3501,   1.9164,  -0.3825
        11.1032, -48.2903,  22.7869,   1.8994,  -0.3570
        11.1059, -48.7035,  22.7700,   1.8898,  -0.3787
        11.1085, -49.1701,  23.0564,   1.8846,  -0.3770
        11.1111, -48.8047,  22.6949,   1.8870,  -0.3735
        11.1138, -48.7866,  22.4039,   1.8809,  -0.3935
        11.1164, -48.5981,  22.3956,   1.9126,  -0.3945
        11.1190, -48.3119,  22.0034,   1.9253,  -0.3947
        11.1216, -48.2952,  22.8339,   1.9333,  -0.3691
        11.1243, -48.3180,  22.4371,   1.9250,  -0.3797
        11.1269, -48.5559,  22.2687,   1.9014,  -0.3814
        11.1295, -47.9718,  22.1117,   1.9346,  -0.3923
        11.1321, -48.4688,  22.2695,   1.9290,  -0.3935
        11.1348, -48.3771,  22.2039,   1.9070,  -0.3979
        11.1374, -48.3611,  21.8777,   1.9384,  -0.3862
        11.1400, -48.4188,  21.9740,   1.9195,  -0.4120
        11.1426, -48.3823,  21.8180,   1.9333,  -0.4054
        11.1453, -48.4218,  22.2885,   1.9206,  -0.3922
        11.1479, -48.2777,  21.9517,   1.9227,  -0.3981
        11.1505, -48.3581,  21.1708,   1.9442,  -0.4337
        11.1531, -48.5621,  21.9065,   1.9170,  -0.3803
        11.1557, -48.4086,  21.8820,   1.9204,  -0.4192
        11.1584, -48.3619,  21.7619,   1.9218,  -0.4126
        11.1610, -48.6129,  21.4599,   1.9132,  -0.4176
        11.1636, -48.0742,  21.9216,   1.9240,  -0.3824
        11.1663, -48.2406,  21.6011,   1.9195,  -0.3977
        11.1689, -48.4017,  21.7399,   1.9209,  -0.4279
        11.1715, -47.8047,  22.1125,   1.9149,  -0.4049
        11.1741, -48.1879,  21.9456,   1.8936,  -0.4096
        11.1768, -48.3137,  22.0175,   1.8889,  -0.3992
        11.1794, -48.3988,  22.3980,   1.8936,  -0.3703
        11.1820, -48.2644,  21.7722,   1.8977,  -0.3968
        11.1846, -48.0378,  21.9015,   1.8915,  -0.4099
        11.1873, -48.2919,  21.9609,   1.9022,  -0.3872
        11.1899, -47.9803,  21.8520,   1.9220,  -0.4009
        11.1925, -48.1101,  21.9825,   1.9116,  -0.3971
        11.1951, -48.0595,  21.8800,   1.9095,  -0.3973
        11.1977, -48.3709,  21.9727,   1.8892,  -0.4027
        11.2004, -48.1822,  21.9582,   1.8980,  -0.4043
        11.2030, -48.3162,  22.1626,   1.8842,  -0.3943
        11.2056, -47.9407,  22.2141,   1.8819,  -0.3712
        11.2083, -47.9881,  22.1374,   1.8883,  -0.3735
        11.2109, -48.2170,  21.7097,   1.8996,  -0.4102
        11.2135, -48.3859,  22.5190,   1.8924,  -0.3604
        11.2161, -48.0277,  22.0572,   1.8889,  -0.3917
        11.2188, -48.3915,  22.1022,   1.8900,  -0.4102
        11.2214, -47.8806,  22.1952,   1.8977,  -0.3838
        11.2240, -48.5735,  21.9054,   1.8835,  -0.3911
        11.2266, -47.6962,  21.7120,   1.9121,  -0.4020
        11.2293, -47.9093,  21.9173,   1.8916,  -0.3907
        11.2319, -48.3226,  22.1201,   1.8685,  -0.3861
        11.2345, -48.0504,  21.8342,   1.8781,  -0.3880
        11.2371, -48.1834,  21.7668,   1.8929,  -0.4011
        11.2398, -48.6170,  21.9763,   1.8561,  -0.3928
        11.2424, -48.0027,  21.9783,   1.8948,  -0.3770
        11.2450, -47.6453,  21.5634,   1.9149,  -0.3841
        11.2476, -47.6681,  22.3628,   1.9043,  -0.3399
        11.2502, -47.8111,  21.5770,   1.9109,  -0.3912
        11.2529, -47.5985,  22.2150,   1.8957,  -0.3789
        11.2555, -47.4120,  21.6166,   1.9000,  -0.3723
        11.2581, -47.1318,  21.8658,   1.9177,  -0.3800
        11.2608, -47.4583,  21.8206,   1.9145,  -0.3934
        11.2634, -47.2115,  21.8238,   1.9197,  -0.3861
        11.2660, -47.1899,  21.6344,   1.9150,  -0.3847
        11.2686, -47.1887,  22.1338,   1.8947,  -0.3721
        11.2713, -47.1054,  21.6681,   1.9252,  -0.3775
        11.2739, -47.3470,  21.3560,   1.9141,  -0.3858
        11.2765, -46.8982,  21.9892,   1.9200,  -0.3564
        11.2791, -46.8069,  21.3801,   1.9069,  -0.3785
        11.2818, -47.4110,  21.4577,   1.9094,  -0.3761
        11.2844, -46.8878,  21.3294,   1.9352,  -0.3919
        11.2870, -47.0323,  21.2245,   1.9431,  -0.3897
        11.2896, -47.0194,  21.7396,   1.9048,  -0.3900
        11.2922, -46.8565,  21.3081,   1.9213,  -0.3782
        11.2949, -46.9571,  21.6154,   1.9226,  -0.3832
        11.2975, -47.1407,  21.6652,   1.9067,  -0.3865
        11.3001, -46.8703,  21.4230,   1.9268,  -0.4096
        11.3028, -47.1521,  21.3088,   1.9367,  -0.3850
        11.3054, -46.9234,  21.0766,   1.9240,  -0.3903
        11.3080, -47.0877,  21.1351,   1.9238,  -0.3962
        11.3106, -47.1870,  21.3503,   1.8994,  -0.3930
        11.3133, -46.9530,  21.6472,   1.8908,  -0.3861
        11.3159, -46.7329,  21.3045,   1.9345,  -0.3962
        11.3185, -46.7636,  21.1573,   1.9363,  -0.4131
        11.3211, -47.3697,  21.3565,   1.9168,  -0.4017
        11.3238, -46.4982,  21.1878,   1.9422,  -0.3848
        11.3264, -46.4474,  21.4257,   1.9341,  -0.3892
        11.3290, -46.8869,  21.0269,   1.9217,  -0.3873
        11.3316, -47.2110,  21.4230,   1.8996,  -0.3854
        11.3343, -47.5432,  21.5886,   1.8790,  -0.4110
        11.3369, -47.1947,  21.2210,   1.8824,  -0.3920
        11.3395, -47.0001,  21.2485,   1.9197,  -0.3991
        11.3421, -47.5201,  21.2674,   1.8931,  -0.4126
        11.3447, -47.1479,  21.2191,   1.9327,  -0.3873
        11.3474, -46.8884,  21.0417,   1.9222,  -0.4029
        11.3500, -46.9653,  21.2412,   1.8887,  -0.3915
        11.3526, -47.1604,  21.2417,   1.8954,  -0.3880
        11.3553, -47.0579,  21.3038,   1.9059,  -0.4043
        11.3579, -46.8398,  21.1259,   1.9173,  -0.4048
        11.3605, -46.8638,  21.5443,   1.8938,  -0.3743
        11.3631, -47.0210,  21.3545,   1.9096,  -0.4112
        11.3658, -47.0774,  21.4903,   1.8973,  -0.3698
        11.3684, -46.4786,  21.5925,   1.9098,  -0.3808
        11.3710, -46.9139,  21.3344,   1.8989,  -0.3964
        11.3736, -46.2833,  21.5671,   1.9062,  -0.3659
        11.3763, -46.8722,  20.9561,   1.9181,  -0.3804
        11.3789, -46.7870,  21.4640,   1.8911,  -0.3734
        11.3815, -46.6181,  20.9131,   1.9100,  -0.3851
        11.3841, -46.0814,  21.3363,   1.9311,  -0.3862
        11.3867, -46.7089,  21.4039,   1.8866,  -0.3871
        11.3894, -46.6595,  20.9239,   1.9077,  -0.3981
        11.3920, -46.1640,  21.6918,   1.9305,  -0.3863
        11.3946, -46.6502,  21.1692,   1.8968,  -0.3688
        11.3973, -46.5839,  21.2736,   1.9114,  -0.3717
        11.3999, -46.1306,  21.1161,   1.9219,  -0.3883
        11.4025, -46.6590,  21.4515,   1.9102,  -0.3852
        11.4051, -45.8420,  21.2802,   1.9212,  -0.3522
        11.4078, -46.5362,  20.9903,   1.9091,  -0.3695
        11.4104, -46.0249,  21.5359,   1.9107,  -0.3587
        11.4130, -46.7564,  20.7887,   1.9069,  -0.3931
        11.4156, -46.5504,  21.2343,   1.8944,  -0.3769
        11.4183, -46.4584,  21.0008,   1.9163,  -0.3858
        11.4209, -45.9327,  21.1570,   1.9446,  -0.3694
        11.4235, -45.8794,  20.9347,   1.9230,  -0.3820
        11.4261, -46.1866,  21.0530,   1.9266,  -0.3863
        11.4288, -46.0757,  20.7535,   1.9420,  -0.3712
        11.4314, -45.9243,  21.0491,   1.9315,  -0.3782
        11.4340, -46.0114,  20.6498,   1.9247,  -0.3931
        11.4366, -46.4034,  21.1223,   1.9199,  -0.3934
        11.4392, -45.5064,  20.9887,   1.9134,  -0.3960
        11.4419, -45.8617,  20.9201,   1.9217,  -0.3812
        11.4445, -45.6127,  20.4594,   1.9415,  -0.3932
        11.4471, -45.7853,  20.7686,   1.9244,  -0.3706
        11.4498, -45.9738,  20.6466,   1.9361,  -0.3830
        11.4524, -46.0625,  20.5907,   1.9135,  -0.3899
        11.4550, -45.8079,  20.6981,   1.9034,  -0.3772
        11.4576, -46.0873,  20.6883,   1.9156,  -0.4183
        11.4603, -45.7656,  20.7616,   1.9280,  -0.4067
        11.4629, -46.1996,  20.5029,   1.8960,  -0.3932
        11.4655, -45.9291,  20.6917,   1.9086,  -0.3763
        11.4681, -45.6945,  20.1227,   1.9328,  -0.3928
        11.4708, -45.7653,  20.8648,   1.9302,  -0.3804
        11.4734, -45.4781,  20.5214,   1.9534,  -0.4047
        11.4760, -45.7933,  20.5495,   1.9306,  -0.3891
        11.4786, -45.9754,  21.1022,   1.8972,  -0.3889
        11.4812, -45.8650,  20.4135,   1.9380,  -0.4000
        11.4839, -45.3723,  20.6620,   1.9421,  -0.3859
        11.4865, -45.6532,  20.6267,   1.9204,  -0.4020
        11.4891, -45.5733,  20.4008,   1.9349,  -0.3969
        11.4918, -45.4836,  20.4092,   1.9318,  -0.3691
        11.4944, -45.7977,  20.4931,   1.9208,  -0.3828
        11.4970, -46.0771,  20.5208,   1.9176,  -0.4011
        11.4996, -45.1826,  20.5559,   1.9369,  -0.4031
        11.5023, -45.7983,  20.3998,   1.9223,  -0.4066
        11.5049, -45.2735,  20.5652,   1.9379,  -0.3675
        11.5075, -45.5508,  20.5103,   1.9261,  -0.3795
        11.5101, -45.3813,  20.4888,   1.9165,  -0.3747
        11.5128, -45.2394,  20.5776,   1.9266,  -0.3891
        11.5154, -45.3510,  20.6120,   1.9270,  -0.3655
        11.5180, -45.5413,  20.6962,   1.9288,  -0.3748
        11.5206, -45.2046,  20.5773,   1.9282,  -0.3857
        11.5233, -45.2629,  20.6595,   1.9257,  -0.3766
        11.5259, -45.4819,  20.5505,   1.9269,  -0.3868
        11.5285, -45.2301,  20.6227,   1.9052,  -0.3827
        11.5311, -45.8547,  20.5696,   1.9007,  -0.3829
        11.5338, -45.6891,  21.0233,   1.9005,  -0.3690
        11.5364, -44.9976,  20.5944,   1.9185,  -0.3670
        11.5390, -45.8265,  19.8579,   1.9048,  -0.4219
        11.5416, -45.3820,  20.5723,   1.9234,  -0.3756
        11.5443, -45.1399,  19.8593,   1.9384,  -0.3805
        11.5469, -44.6434,  20.9027,   1.9309,  -0.3638
        11.5495, -44.9392,  20.2697,   1.9504,  -0.3693
        11.5521, -44.7430,  20.5977,   1.9289,  -0.3687
        11.5548, -45.1551,  20.6994,   1.9267,  -0.3683
        11.5574, -44.3424,  20.5059,   1.9410,  -0.3675
        11.5600, -44.7943,  20.3389,   1.9219,  -0.3889
        11.5626, -44.5848,  20.4841,   1.9586,  -0.3634
        11.5653, -45.1133,  21.0281,   1.9123,  -0.3559
        11.5679, -45.0590,  20.8097,   1.9214,  -0.3922
        11.5705, -45.0312,  20.3247,   1.9337,  -0.3916
        11.5731, -45.2349,  20.2586,   1.9116,  -0.3813
        11.5757, -45.1524,  19.8469,   1.9431,  -0.3947
        11.5784, -44.6612,  20.4035,   1.9275,  -0.3649
        11.5810, -44.6692,  20.3619,   1.9495,  -0.3769
        11.5836, -44.7770,  20.1619,   1.9434,  -0.3796
        11.5863, -44.7053,  20.4055,   1.9346,  -0.3631
        11.5889, -44.6928,  20.0928,   1.9438,  -0.3658
        11.5915, -45.0536,  20.2203,   1.9436,  -0.3904
        11.5941, -44.9402,  19.9674,   1.9388,  -0.3868
        11.5968, -44.5523,  20.0874,   1.9171,  -0.3787
        11.5994, -44.6063,  19.9059,   1.9367,  -0.3872
        11.6020, -44.4875,  19.9912,   1.9312,  -0.3794
        11.6046, -44.4339,  19.7793,   1.9527,  -0.3910
        11.6073, -44.2513,  20.2288,   1.9170,  -0.3680
        11.6099, -44.8506,  19.8018,   1.9351,  -0.3819
        11.6125, -44.5586,  20.1477,   1.9366,  -0.3690
        11.6151, -44.6459,  20.0572,   1.9323,  -0.3715
        11.6177, -44.4084,  19.8801,   1.9385,  -0.3951
        11.6204, -44.7242,  20.2924,   1.9141,  -0.3697
        11.6230, -44.7927,  19.8551,   1.9338,  -0.3891
        11.6256, -44.4598,  20.1267,   1.9194,  -0.3708
        11.6283, -45.0645,  19.9443,   1.9102,  -0.3882
        11.6309, -44.6643,  20.0714,   1.9199,  -0.3972
        11.6335, -44.5853,  20.1090,   1.8962,  -0.3782
        11.6361, -44.5983,  19.8804,   1.9183,  -0.3775
        11.6388, -44.3862,  20.3488,   1.9317,  -0.3633
        11.6414, -44.3761,  19.4324,   1.9340,  -0.4113
        11.6440, -44.1601,  20.0539,   1.9563,  -0.3784
        11.6466, -44.1041,  20.0927,   1.9535,  -0.3603
        11.6493, -44.5324,  19.5670,   1.9307,  -0.4041
        11.6519, -44.2475,  19.8568,   1.9401,  -0.3722
        11.6545, -43.9892,  20.0060,   1.9364,  -0.3887
        11.6571, -44.2863,  20.0982,   1.9246,  -0.3775
        11.6598, -44.1853,  20.1911,   1.9291,  -0.3656
        11.6624, -44.2516,  20.0071,   1.9283,  -0.3746
        11.6650, -44.2448,  19.9715,   1.9340,  -0.3817
        11.6676, -43.9851,  19.7801,   1.9372,  -0.3943
        11.6702, -44.3024,  19.7416,   1.9222,  -0.3755
        11.6729, -44.3918,  19.7829,   1.9383,  -0.3798
        11.6755, -44.2406,  20.0698,   1.9212,  -0.3844
        11.6781, -44.3284,  19.6056,   1.9293,  -0.3863
        11.6808, -44.1345,  19.9632,   1.9193,  -0.3803
        11.6834, -44.0540,  19.6562,   1.9290,  -0.3883
        11.6860, -44.1652,  19.6167,   1.9299,  -0.3969
        11.6886, -44.1657,  19.8659,   1.9235,  -0.3767
        11.6913, -44.0481,  19.7620,   1.9353,  -0.3960
        11.6939, -43.8532,  20.0252,   1.9635,  -0.3637
        11.6965, -43.9996,  19.8454,   1.9336,  -0.3847
        11.6991, -44.1631,  20.5321,   1.9104,  -0.3371
        11.7018, -44.0640,  19.5269,   1.9545,  -0.3965
        11.7044, -44.1796,  19.9118,   1.9045,  -0.3894
        11.7070, -44.3554,  19.9269,   1.9094,  -0.3674
        11.7096, -43.5117,  20.2354,   1.9404,  -0.3478
        11.7122, -44.7899,  19.6152,   1.9033,  -0.3978
        11.7149, -44.2301,  19.8273,   1.9254,  -0.3931
        11.7175, -43.4660,  20.0039,   1.9295,  -0.3373
        11.7201, -43.8376,  19.3069,   1.9451,  -0.3889
        11.7228, -43.8183,  19.2409,   1.9252,  -0.3923
        11.7254, -44.1215,  20.0903,   1.9185,  -0.3948
        11.7280, -43.8207,  19.7565,   1.9372,  -0.3672
        11.7306, -44.0329,  19.5526,   1.9185,  -0.3829
        11.7333, -43.5561,  19.4254,   1.9710,  -0.3772
        11.7359, -43.5195,  19.4738,   1.9475,  -0.4023
        11.7385, -43.6364,  19.3411,   1.9245,  -0.4008
        11.7411, -43.7244,  19.3708,   1.9481,  -0.3868
        11.7438, -43.6580,  19.9200,   1.9204,  -0.3877
        11.7464, -43.8787,  19.5191,   1.9316,  -0.3716
        11.7490, -43.5906,  19.7591,   1.9254,  -0.3781
        11.7516, -43.6577,  19.6149,   1.9250,  -0.3840
        11.7543, -43.7023,  19.2432,   1.9383,  -0.3866
        11.7569, -43.8867,  19.7621,   1.9374,  -0.3771
        11.7595, -43.6904,  19.4200,   1.9274,  -0.3731
        11.7621, -43.5940,  19.6183,   1.9325,  -0.3852
        11.7647, -43.6013,  19.5827,   1.9329,  -0.3726
        11.7674, -43.6626,  19.5377,   1.9248,  -0.4014
        11.7700, -43.4676,  19.6274,   1.9291,  -0.3771
        11.7726, -43.2497,  19.5563,   1.9477,  -0.3749
        11.7753, -43.0682,  19.2463,   1.9305,  -0.3939
        11.7779, -43.0469,  19.7570,   1.9538,  -0.3606
        11.7805, -43.7473,  19.5667,   1.9142,  -0.3870
        11.7831, -43.1137,  19.8920,   1.9373,  -0.3663
        11.7858, -43.4402,  19.3234,   1.9398,  -0.3867
        11.7884, -43.4538,  19.4669,   1.9276,  -0.3795
        11.7910, -43.2241,  19.5733,   1.9380,  -0.3530
        11.7936, -43.4562,  19.7529,   1.9196,  -0.3643
        11.7963, -43.1086,  19.3595,   1.9289,  -0.3757
        11.7989, -43.2594,  19.0592,   1.9415,  -0.4007
        11.8015, -43.2581,  19.1360,   1.9681,  -0.3805
        11.8041, -43.2433,  19.1254,   1.9527,  -0.3897
        11.8067, -43.1444,  19.1842,   1.9286,  -0.3931
        11.8094, -43.1705,  19.4739,   1.9560,  -0.3631
        11.8120, -43.4254,  19.0215,   1.9297,  -0.3831
        11.8146, -43.2532,  19.0931,   1.9351,  -0.3887
        11.8173, -42.9154,  19.2324,   1.9660,  -0.3887
        11.8199, -42.9033,  19.5519,   1.9311,  -0.3721
        11.8225, -42.9694,  19.4403,   1.9381,  -0.3631
        11.8251, -42.8930,  19.3105,   1.9409,  -0.3762
        11.8278, -43.3638,  18.8613,   1.9434,  -0.3794
        11.8304, -42.5277,  19.4649,   1.9519,  -0.3529
        11.8330, -42.6780,  19.0058,   1.9582,  -0.3945
        11.8356, -42.6753,  18.9758,   1.9670,  -0.3963
        11.8383, -43.0409,  19.4021,   1.9413,  -0.3753
        11.8409, -42.6346,  19.2707,   1.9533,  -0.3747
        11.8435, -42.7787,  19.1754,   1.9400,  -0.3733
        11.8461, -42.8304,  18.7990,   1.9612,  -0.3778
        11.8488, -42.6548,  18.9681,   1.9510,  -0.3883
        11.8514, -42.8535,  19.0567,   1.9454,  -0.3796
        11.8540, -43.0203,  19.2695,   1.9470,  -0.3673
        11.8566, -42.6940,  19.0642,   1.9519,  -0.3796
        11.8592, -43.1074,  18.9600,   1.9370,  -0.3890
        11.8619, -43.0006,  18.7734,   1.9405,  -0.4048
        11.8645, -42.6788,  19.0545,   1.9363,  -0.3650
        11.8671, -42.7872,  18.9670,   1.9341,  -0.4005
        11.8698, -42.9664,  19.1189,   1.9447,  -0.3743
        11.8724, -42.4632,  19.1251,   1.9437,  -0.3442
        11.8750, -42.7816,  19.1233,   1.9277,  -0.3873
        11.8776, -42.5771,  19.1549,   1.9470,  -0.3766
        11.8803, -42.6096,  19.4834,   1.9404,  -0.3633
        11.8829, -42.7578,  18.9831,   1.9522,  -0.3845
        11.8855, -42.6175,  18.7535,   1.9442,  -0.3957
        11.8881, -42.7346,  19.0631,   1.9335,  -0.3733
        11.8908, -42.5917,  18.7824,   1.9646,  -0.3859
        11.8934, -42.5294,  18.8366,   1.9440,  -0.3949
        11.8960, -42.7765,  18.8516,   1.9324,  -0.3851
        11.8986, -42.8345,  18.9395,   1.9385,  -0.4100
        11.9012, -42.2412,  19.0953,   1.9542,  -0.3772
        11.9039, -42.6377,  19.0773,   1.9208,  -0.3785
        11.9065, -42.9622,  18.8032,   1.9186,  -0.3984
        11.9091, -42.4246,  19.1190,   1.9378,  -0.3781
        11.9118, -42.8200,  18.8773,   1.9286,  -0.3788
        11.9144, -42.7365,  18.9601,   1.9232,  -0.3785
        11.9170, -42.2985,  18.5309,   1.9393,  -0.3914
        11.9196, -42.8174,  18.8245,   1.9393,  -0.3841
        11.9223, -42.3624,  19.1699,   1.9445,  -0.3712
        11.9249, -42.4424,  19.0005,   1.9387,  -0.3747
        11.9275, -42.5026,  18.8341,   1.9251,  -0.3717
        11.9301, -42.3946,  18.9841,   1.9351,  -0.3737
        11.9328, -42.3401,  18.7684,   1.9377,  -0.3861
        11.9354, -42.2736,  18.9711,   1.9385,  -0.3804
        11.9380, -42.2385,  18.9895,   1.9524,  -0.3938
        11.9406, -41.9850,  18.4593,   1.9550,  -0.3738
        11.9433, -42.5274,  18.9704,   1.9351,  -0.3827
        11.9459, -41.9404,  18.7107,   1.9656,  -0.3768
        11.9485, -42.2692,  18.9107,   1.9432,  -0.3570
        11.9511, -42.1816,  18.6207,   1.9395,  -0.3821
        11.9537, -42.0517,  18.7002,   1.9420,  -0.3627
        11.9564, -42.0289,  18.8941,   1.9399,  -0.3641
        11.9590, -42.4721,  18.9224,   1.9459,  -0.3759
        11.9616, -41.9932,  18.9354,   1.9331,  -0.3539
        11.9643, -41.6137,  18.7405,   1.9644,  -0.3505
        11.9669, -41.8237,  19.0358,   1.9403,  -0.3575
        11.9695, -41.5555,  18.9348,   1.9771,  -0.3606
        11.9721, -41.7748,  18.3969,   1.9453,  -0.4050
        11.9748, -41.7955,  18.7574,   1.9583,  -0.3713
        11.9774, -41.8514,  18.7934,   1.9411,  -0.3809
        11.9800, -41.7657,  18.6917,   1.9485,  -0.3716
        11.9826, -42.0159,  18.6881,   1.9382,  -0.3838
        11.9853, -41.7329,  18.7762,   1.9540,  -0.3851
        11.9879, -41.8448,  18.9706,   1.9218,  -0.3450
        11.9905, -41.7530,  18.5588,   1.9466,  -0.3805
        11.9931, -41.7203,  18.5039,   1.9573,  -0.3620
        11.9957, -41.7793,  18.2875,   1.9536,  -0.4048
        11.9984, -41.0995,  18.8332,   1.9673,  -0.3636
        12.0010, -41.5620,  18.6794,   1.9367,  -0.3775
        12.0036, -41.6961,  18.4934,   1.9433,  -0.3811
        12.0063, -41.8722,  18.6166,   1.9511,  -0.3691
        12.0089, -41.4955,  18.4604,   1.9507,  -0.3840
        12.0115, -41.8193,  18.5160,   1.9698,  -0.3670
        12.0141, -41.2550,  18.8050,   1.9746,  -0.3594
        12.0168, -41.6136,  18.5603,   1.9561,  -0.3758
        12.0194, -41.6772,  18.4554,   1.9606,  -0.3836
        12.0220, -41.5797,  18.4400,   1.9581,  -0.3771
        12.0246, -42.1184,  18.6363,   1.9342,  -0.4007
        12.0273, -41.2702,  18.4704,   1.9558,  -0.3750
        12.0299, -41.4483,  18.2891,   1.9528,  -0.3906
        12.0325, -41.4417,  18.5046,   1.9546,  -0.3739
        12.0351, -41.9126,  18.0752,   1.9448,  -0.4007
        12.0378, -41.7367,  18.4127,   1.9457,  -0.4024
        12.0404, -41.4663,  18.3519,   1.9604,  -0.3736
        12.0430, -41.4849,  18.5265,   1.9329,  -0.3648
        12.0456, -41.5339,  18.0628,   1.9547,  -0.3906
        12.0482, -41.3669,  18.3973,   1.9629,  -0.3761
        12.0509, -41.7941,  18.5579,   1.9348,  -0.3825
        12.0535, -41.3688,  18.6601,   1.9392,  -0.3525
        12.0561, -41.8080,  18.6886,   1.9185,  -0.3671
        12.0588, -41.1902,  18.7522,   1.9642,  -0.3592
        12.0614, -41.4728,  18.4270,   1.9620,  -0.3740
        12.0640, -41.4782,  18.3831,   1.9273,  -0.4001
        12.0666, -41.2944,  18.1950,   1.9563,  -0.3886
        12.0693, -41.1367,  17.9637,   1.9461,  -0.3920
        12.0719, -41.3910,  18.4141,   1.9603,  -0.3655
        12.0745, -41.2939,  18.4122,   1.9432,  -0.3665
        12.0771, -41.1456,  18.5082,   1.9370,  -0.3667
        12.0798, -41.1732,  18.2827,   1.9407,  -0.3747
        12.0824, -41.3116,  18.1968,   1.9544,  -0.3642
        12.0850, -41.0445,  18.1833,   1.9624,  -0.3674
        12.0876, -40.9407,  18.3416,   1.9470,  -0.3790
        12.0902, -41.1189,  18.3391,   1.9412,  -0.3338
        12.0929, -40.9402,  18.5762,   1.9295,  -0.3607
        12.0955, -41.2262,  18.2446,   1.9679,  -0.3704
        12.0981, -41.0943,  18.6259,   1.9467,  -0.3498
        12.1008, -40.9738,  18.6206,   1.9334,  -0.3340
        12.1034, -40.9527,  18.2359,   1.9580,  -0.3678
        12.1060, -41.2070,  18.5560,   1.9403,  -0.3487
        12.1086, -40.8200,  18.3254,   1.9727,  -0.3592
        12.1113, -41.0289,  18.2368,   1.9656,  -0.3394
        12.1139, -40.7957,  18.4864,   1.9614,  -0.3647
        12.1165, -40.9767,  18.3366,   1.9481,  -0.3586
        12.1191, -40.5806,  18.3654,   1.9607,  -0.3625
        12.1218, -40.7032,  18.2087,   1.9798,  -0.3691
        12.1244, -40.5781,  18.8474,   1.9542,  -0.3686
        12.1270, -40.6138,  18.3965,   1.9594,  -0.3500
        12.1296, -40.5318,  18.4667,   1.9650,  -0.3322
        12.1323, -40.5942,  18.0254,   1.9652,  -0.3513
        12.1349, -40.6394,  18.2567,   1.9650,  -0.3595
        12.1375, -40.7851,  17.7973,   1.9624,  -0.3744
        12.1401, -40.7792,  18.0309,   1.9596,  -0.3647
        12.1427, -40.3689,  17.9614,   1.9795,  -0.3479
        12.1454, -40.6174,  18.4249,   1.9680,  -0.3624
        12.1480, -40.7173,  17.8456,   1.9665,  -0.3918
        12.1506, -40.8565,  18.2141,   1.9427,  -0.3644
        12.1533, -40.5858,  18.0839,   1.9611,  -0.3670
        12.1559, -40.5740,  17.9149,   1.9659,  -0.3680
        12.1585, -40.6760,  18.0521,   1.9501,  -0.3786
        12.1611, -40.9018,  17.9840,   1.9336,  -0.3721
        12.1638, -40.6927,  18.2865,   1.9455,  -0.3646
        12.1664, -40.4037,  17.9239,   1.9547,  -0.3652
        12.1690, -40.6996,  18.0128,   1.9776,  -0.3726
        12.1716, -40.6401,  18.1212,   1.9546,  -0.3586
        12.1743, -40.6104,  17.8122,   1.9716,  -0.3913
        12.1769, -40.6828,  18.0605,   1.9406,  -0.3676
        12.1795, -40.6314,  17.8246,   1.9572,  -0.3809
        12.1821, -40.5011,  17.9008,   1.9520,  -0.3922
        12.1847, -40.6483,  18.0303,   1.9702,  -0.3757
        12.1874, -40.4579,  17.7740,   1.9606,  -0.3913
        12.1900, -40.5661,  17.8360,   1.9526,  -0.3766
        12.1926, -40.5301,  17.8039,   1.9462,  -0.3833
        12.1953, -40.8388,  17.6703,   1.9466,  -0.3904
        12.1979, -40.4299,  17.9696,   1.9412,  -0.3721
        12.2005, -40.3729,  18.0254,   1.9559,  -0.3731
        12.2031, -40.5719,  17.8798,   1.9339,  -0.3671
        12.2058, -40.7981,  17.9694,   1.9445,  -0.3709
        12.2084, -40.5169,  17.8201,   1.9636,  -0.3660
        12.2110, -40.5819,  18.0300,   1.9351,  -0.3649
        12.2136, -40.5446,  18.1944,   1.9359,  -0.3573
        12.2163, -40.3779,  17.7823,   1.9381,  -0.3614
        12.2189, -40.5759,  18.0202,   1.9497,  -0.3607
        12.2215, -40.2801,  17.7791,   1.9501,  -0.3968
        12.2241, -40.6275,  18.0953,   1.9176,  -0.3619
        12.2267, -40.6529,  17.8277,   1.9532,  -0.3655
        12.2294, -40.3938,  18.2032,   1.9684,  -0.3535
        12.2320, -40.4550,  17.9316,   1.9500,  -0.3688
        12.2346, -40.6018,  17.8605,   1.9330,  -0.3861
        12.2373, -40.0905,  18.1115,   1.9465,  -0.3385
        12.2399, -40.0954,  17.8705,   1.9523,  -0.3514
        12.2425, -39.9519,  17.7695,   1.9551,  -0.3678
        12.2451, -40.1368,  17.9036,   1.9402,  -0.3847
        12.2478, -39.9873,  18.2422,   1.9784,  -0.3618
        12.2504, -40.3942,  17.6593,   1.9571,  -0.3574
        12.2530, -40.1695,  17.4301,   1.9533,  -0.3540
        12.2556, -39.9136,  17.9085,   1.9579,  -0.3539
        12.2583, -39.9426,  17.7925,   1.9666,  -0.3787
        12.2609, -40.1266,  17.9427,   1.9566,  -0.3512
        12.2635, -39.7510,  17.7751,   1.9660,  -0.3392
        12.2661, -39.9299,  17.8486,   1.9486,  -0.3574
        12.2688, -39.6685,  18.0418,   1.9614,  -0.3665
        12.2714, -39.4630,  17.7787,   1.9602,  -0.3528
        12.2740, -39.6740,  17.5205,   1.9711,  -0.3532
        12.2766, -40.0177,  17.9084,   1.9619,  -0.3669
        12.2792, -39.9205,  17.6514,   1.9760,  -0.3722
        12.2819, -39.9908,  17.8411,   1.9558,  -0.3618
        12.2845, -39.5109,  17.7374,   1.9953,  -0.3765
        12.2871, -39.6690,  17.2975,   1.9941,  -0.3856
        12.2898, -40.0640,  17.1303,   1.9705,  -0.4063
        12.2924, -39.8441,  17.2992,   1.9769,  -0.3715
        12.2950, -39.5591,  17.4942,   1.9834,  -0.3852
        12.2976, -39.6511,  17.5936,   1.9709,  -0.3755
        12.3003, -39.7759,  17.4058,   1.9656,  -0.3942
        12.3029, -39.1690,  17.4668,   1.9980,  -0.3525
        12.3055, -39.2850,  17.2308,   1.9875,  -0.3650
        12.3081, -39.7572,  17.5194,   1.9713,  -0.3761
        12.3108, -39.5780,  17.7020,   1.9720,  -0.3626
        12.3134, -39.4406,  17.2932,   1.9674,  -0.3648
        12.3160, -39.6254,  17.4456,   1.9667,  -0.3695
        12.3186, -39.8047,  17.3576,   1.9713,  -0.3809
        12.3212, -39.6994,  17.4286,   1.9466,  -0.3934
        12.3239, -39.7198,  17.0772,   1.9440,  -0.3994
        12.3265, -39.4356,  17.3545,   1.9661,  -0.3779
        12.3291, -39.6920,  17.4440,   1.9707,  -0.3758
        12.3318, -39.2129,  17.3479,   1.9720,  -0.3630
        12.3344, -39.4752,  17.1818,   1.9590,  -0.3684
        12.3370, -39.4992,  17.0722,   1.9768,  -0.3895
        12.3396, -39.2079,  17.2327,   1.9831,  -0.3796
        12.3423, -39.6830,  17.0798,   1.9563,  -0.3886
        12.3449, -39.3835,  17.0868,   1.9754,  -0.3608
        12.3475, -39.4879,  17.1913,   1.9822,  -0.3924
        12.3501, -39.6902,  17.3434,   1.9607,  -0.3698
        12.3528, -39.1906,  17.2882,   1.9725,  -0.3753
        12.3554, -39.2730,  17.4781,   1.9547,  -0.3772
        12.3580, -39.4128,  17.3558,   1.9519,  -0.3705
        12.3606, -39.5964,  17.6465,   1.9352,  -0.3737
        12.3633, -39.4780,  17.3135,   1.9611,  -0.3625
        12.3659, -39.5517,  17.5304,   1.9642,  -0.3676
        12.3685, -38.8869,  17.4684,   1.9551,  -0.3485
        12.3711, -39.5028,  17.3762,   1.9665,  -0.3740
        12.3737, -39.4917,  17.5372,   1.9586,  -0.3697
        12.3764, -39.7268,  17.4297,   1.9430,  -0.3773
        12.3790, -39.2627,  17.2044,   1.9531,  -0.3989
        12.3816, -39.4873,  17.6622,   1.9735,  -0.3499
        12.3843, -39.2430,  17.7094,   1.9628,  -0.3561
        12.3869, -39.2891,  17.7266,   1.9758,  -0.3409
        12.3895, -39.0240,  17.5583,   1.9608,  -0.3582
        12.3921, -39.1860,  17.7627,   1.9509,  -0.3410
        12.3948, -38.9335,  17.7699,   1.9584,  -0.3374
        12.3974, -39.3386,  17.4059,   1.9404,  -0.3433
        12.4000, -39.2144,  16.9943,   1.9684,  -0.3664

